timestamps,TP9,AF7,AF8,TP10,Marker0
0.009,-449.219,-543.457,-568.848,23.438,0
0.013,-1000.000,-1000.000,-506.836,-767.090,0
0.017,264.160,-164.062,-539.062,202.148,0
0.021,-772.461,-839.355,-640.137,-1000.000,0
0.025,113.281,80.078,-562.988,-270.996,0
0.029,-1000.000,-1000.000,-487.305,-802.734,0
0.033,-256.348,-274.902,-490.234,337.891,0
0.037,-801.270,-833.008,-622.070,-1000.000,0
0.041,229.492,244.629,-651.855,-475.098,0
0.044,-1000.000,-1000.000,-462.891,-927.246,0
0.048,-271.973,-708.984,-397.461,766.602,0
0.052,-830.078,939.453,-641.113,-832.031,0
0.056,616.699,556.641,-706.055,-949.707,0
0.060,-1000.000,-976.074,-524.902,571.289,0
0.064,-672.363,-1000.000,-496.582,-824.219,0
0.068,895.020,197.754,-625.977,-103.027,0
0.072,-899.902,-910.156,-701.172,-1000.000,0
0.076,-253.418,-338.867,-523.926,-63.477,0
0.080,-1000.000,-1000.000,-509.766,-774.902,0
0.084,131.836,-213.379,-553.223,210.449,0
0.087,-760.254,-836.426,-583.008,-1000.000,0
0.091,192.383,197.266,-511.719,-273.926,0
0.095,-1000.000,-1000.000,-545.410,-809.082,0
0.099,-272.461,-373.535,-536.133,436.035,0
0.103,-798.828,-856.445,-602.051,-1000.000,0
0.107,333.008,246.582,-612.793,-573.730,0
0.111,-1000.000,-1000.000,-553.711,-999.512,0
0.115,-378.418,-849.121,-500.977,895.996,0
0.119,-887.695,760.254,-596.191,-641.113,0
0.123,759.277,674.316,-677.734,-1000.000,0
0.127,-854.004,-897.949,-547.363,385.254,0
0.131,-842.285,-1000.000,-508.789,-785.156,0
0.134,719.238,60.547,-522.949,56.641,0
0.138,-842.773,-844.727,-620.117,-1000.000,0
0.142,-160.645,-197.266,-576.172,-166.016,0
0.146,-1000.000,-1000.000,-528.809,-843.750,0
0.150,83.496,-133.301,-452.637,133.301,0
0.154,-779.297,-841.309,-549.805,-1000.000,0
0.158,204.102,244.629,-607.910,-273.926,0
0.162,-1000.000,-1000.000,-529.297,-821.289,0
0.166,-274.902,-473.633,-453.613,528.809,0
0.170,-806.641,-889.648,-592.285,-1000.000,0
0.174,434.082,322.754,-700.684,-662.109,0
0.177,-1000.000,-1000.000,-529.785,908.691,0
0.181,-480.957,-961.914,-427.734,-954.590,0
0.185,-954.102,578.613,-608.398,-375.488,0
0.189,887.695,822.754,-723.145,-1000.000,0
0.193,-666.504,-743.652,-541.016,192.383,0
0.197,-979.980,-1000.000,-473.633,-761.230,0
0.201,550.293,-51.270,-581.543,166.992,0
0.205,-811.523,-836.426,-685.059,-1000.000,0
0.209,-29.297,-51.758,-525.879,-263.184,0
0.213,-1000.000,-1000.000,-476.562,-802.246,0
0.217,-133.789,-229.004,-498.047,234.863,0
0.220,-783.203,-827.148,-586.914,-1000.000,0
0.224,216.797,245.117,-559.082,-371.094,0
0.228,-1000.000,-1000.000,-484.375,-863.281,0
0.232,-274.902,-578.613,-519.043,624.512,0
0.236,-816.895,-943.359,-625.000,-1000.000,0
0.240,528.809,439.453,-664.062,-805.664,0
0.244,-1000.000,-1000.000,-537.109,740.234,0
0.248,-579.590,-1000.000,-492.676,-866.211,0
0.252,975.098,373.047,-601.562,-214.844,0
0.256,997.070,960.449,-636.230,-1000.000,0
0.260,-453.613,-560.547,-507.812,60.059,0
0.264,-1000.000,-1000.000,-518.066,-764.160,0
0.267,291.504,-162.598,-526.367,198.730,0
0.271,-775.879,-842.285,-583.984,-1000.000,0
0.275,84.473,62.012,-579.102,-271.484,0
0.279,-1000.000,-1000.000,-571.289,-802.734,0
0.283,-252.441,-272.461,-506.348,337.402,0
0.287,-803.223,-833.984,-583.008,-1000.000,0
0.291,229.980,245.605,-640.625,-475.098,0
0.295,-1000.000,-1000.000,-556.152,-927.246,0
0.299,-271.973,-689.941,-496.094,766.602,0
0.303,-830.078,958.008,-616.699,-833.008,0
0.307,616.699,554.688,-693.359,-946.777,0
0.310,-1000.000,-974.609,-542.480,566.406,0
0.314,-671.875,-1000.000,-444.824,-820.312,0
0.318,894.043,209.473,-542.480,-50.781,0
0.322,-897.949,-926.758,-697.754,-1000.000,0
0.326,-257.324,-369.141,-578.613,-135.742,0
0.330,-1000.000,-1000.000,-445.312,-785.156,0
0.334,158.691,-211.426,-448.242,218.262,0
0.338,-758.301,-838.867,-608.398,-1000.000,0
0.342,189.941,179.688,-565.430,-272.461,0
0.346,-1000.000,-1000.000,-528.320,-810.547,0
0.350,-270.996,-365.723,-514.648,436.035,0
0.353,-799.316,-855.957,-611.816,-1000.000,0
0.357,305.176,247.070,-638.672,-619.141,0
0.361,-1000.000,-1000.000,-549.316,954.590,0
0.365,-374.023,-828.613,-519.043,947.754,0
0.369,-890.137,786.133,-628.906,-526.367,0
0.373,761.230,667.480,-640.625,-1000.000,0
0.377,-857.422,-901.855,-490.234,201.172,0
0.381,-829.590,-1000.000,-528.320,-772.949,0
0.385,736.816,76.660,-603.516,79.590,0
0.389,-849.121,-855.469,-642.090,-1000.000,0
0.393,-146.973,-192.871,-538.086,-250.977,0
0.397,-1000.000,-1000.000,-566.406,-805.176,0
0.400,38.086,-220.703,-534.180,232.422,0
0.404,-762.695,-831.543,-551.270,-1000.000,0
0.408,199.707,239.746,-590.332,-303.223,0
0.412,-1000.000,-1000.000,-589.844,-829.102,0
0.416,-277.344,-470.215,-526.855,528.320,0
0.420,-799.316,-888.672,-549.316,-1000.000,0
0.424,408.691,311.035,-621.094,-743.652,0
0.428,-1000.000,-1000.000,-588.867,805.664,0
0.432,-391.602,-962.402,-512.695,-913.574,0
0.436,-965.332,581.543,-531.250,-307.129,0
0.440,888.672,801.758,-622.070,-1000.000,0
0.443,-666.504,-769.043,-607.910,87.402,0
0.447,-972.168,-1000.000,-541.016,-765.137,0
0.451,561.035,-53.223,-542.480,196.777,0
0.455,-809.082,-840.332,-632.324,-1000.000,0
0.459,-35.156,-63.477,-606.934,-265.625,0
0.463,-1000.000,-1000.000,-521.973,-800.293,0
0.467,-78.613,-228.027,-453.125,234.375,0
0.471,-772.461,-828.125,-596.191,-1000.000,0
0.475,209.961,245.117,-622.070,-369.629,0
0.479,-1000.000,-1000.000,-554.688,-872.070,0
0.483,-277.832,-573.730,-506.348,658.203,0
0.486,-810.059,-939.941,-602.539,-948.730,0
0.490,510.742,422.852,-658.203,-873.047,0
0.494,-1000.000,-1000.000,-520.508,652.832,0
0.498,-491.211,-1000.000,-459.961,-843.262,0
0.502,963.379,372.070,-575.684,-159.180,0
0.506,-999.512,947.754,-681.641,-1000.000,0
0.510,-459.473,-580.078,-506.836,10.742,0
0.514,-1000.000,-1000.000,-462.891,-767.090,0
0.518,334.473,-160.645,-576.172,203.125,0
0.522,-778.809,-843.262,-620.117,-1000.000,0
0.526,83.496,57.617,-544.922,-270.996,0
0.530,-1000.000,-1000.000,-541.504,-802.734,0
0.533,-251.465,-271.973,-529.297,337.402,0
0.537,-803.223,-834.473,-593.262,-1000.000,0
0.541,229.980,245.117,-602.051,-470.215,0
0.545,-1000.000,-1000.000,-546.387,-941.406,0
0.549,-271.973,-707.520,-519.043,817.871,0
0.553,-830.078,942.871,-589.355,-766.113,0
0.557,616.699,541.992,-601.074,-956.543,0
0.561,-1000.000,-981.934,-537.598,566.406,0
0.565,-671.875,-1000.000,-558.105,-812.500,0
0.569,895.020,198.730,-597.168,-58.594,0
0.573,-900.391,-939.453,-666.504,-1000.000,0
0.576,-252.930,-390.137,-592.773,-45.410,0
0.580,-1000.000,-1000.000,-559.082,-767.578,0
0.584,126.953,-210.938,-544.434,207.031,0
0.588,-760.742,-839.355,-590.820,-1000.000,0
0.592,192.871,180.664,-561.035,-274.414,0
0.596,-1000.000,-1000.000,-556.152,-809.082,0
0.600,-271.484,-361.328,-485.840,436.523,0
0.604,-799.316,-854.004,-548.828,-1000.000,0
0.608,318.359,245.605,-664.062,-569.824,0
0.612,-1000.000,-1000.000,-583.496,990.234,0
0.616,-375.977,-840.332,-502.441,929.688,0
0.620,-889.160,776.855,-584.473,-589.844,0
0.623,760.742,651.855,-679.199,-1000.000,0
0.627,-857.422,-916.016,-581.543,384.277,0
0.631,-829.590,-1000.000,-498.047,-783.203,0
0.635,737.305,61.523,-583.496,62.012,0
0.639,-850.586,-865.234,-653.320,-1000.000,0
0.643,-144.531,-208.984,-536.133,-182.129,0
0.647,-1000.000,-1000.000,-516.113,-786.133,0
0.651,19.043,-219.238,-538.574,220.703,0
0.655,-765.137,-832.520,-601.074,-1000.000,0
0.659,201.660,238.281,-534.180,-273.438,0
0.663,-1000.000,-1000.000,-471.191,-818.848,0
0.666,-274.902,-475.098,-511.230,528.809,0
0.670,-806.152,-891.113,-621.582,-1000.000,0
0.674,426.270,308.105,-616.211,-662.109,0
0.678,-1000.000,-1000.000,-520.020,908.203,0
0.682,-479.980,-972.168,-528.320,-953.613,0
0.686,-954.590,569.336,-588.867,-374.023,0
0.690,887.207,793.457,-602.539,-1000.000,0
0.694,-664.062,-778.809,-511.719,190.918,0
0.698,-986.816,-1000.000,-562.988,-760.254,0
0.702,539.062,-67.383,-568.359,183.105,0
0.706,-808.105,-844.727,-618.652,-1000.000,0
0.709,-32.715,-68.359,-589.355,-265.625,0
0.713,-1000.000,-1000.000,-550.293,-800.781,0
0.717,-101.074,-227.051,-514.648,234.375,0
0.721,-776.855,-828.613,-537.598,-1000.000,0
0.725,212.891,245.117,-597.168,-371.094,0
0.729,-1000.000,-1000.000,-583.984,-863.281,0
0.733,-275.391,-578.125,-519.043,624.512,0
0.737,-816.895,-941.406,-539.062,-1000.000,0
0.741,528.809,414.062,-618.164,-804.199,0
0.745,-1000.000,-1000.000,-608.398,736.816,0
0.749,-579.590,-1000.000,-504.395,-859.375,0
0.753,974.121,359.863,-537.598,-197.266,0
0.756,-999.023,933.594,-682.617,-1000.000,0
0.760,-462.891,-602.051,-602.051,81.543,0
0.764,-1000.000,-1000.000,-540.039,-759.277,0
0.768,340.332,-160.156,-544.922,196.289,0
0.772,-778.320,-843.750,-618.164,-1000.000,0
0.776,82.031,54.199,-595.215,-271.973,0
0.780,-1000.000,-1000.000,-544.922,-802.734,0
0.784,-234.863,-269.531,-506.348,337.402,0
0.788,-798.828,-833.984,-563.965,-1000.000,0
0.792,227.539,244.629,-628.906,-475.098,0
0.796,-1000.000,-1000.000,-498.047,-927.246,0
0.799,-272.461,-708.496,-446.289,766.602,0
0.803,-830.078,943.359,-619.629,-832.520,0
0.807,616.699,527.344,-660.156,-947.754,0
0.811,-1000.000,-986.816,-557.129,567.871,0
0.815,-671.875,-1000.000,-537.109,-817.871,0
0.819,894.531,186.523,-599.121,-82.520,0
0.823,-899.414,-957.520,-648.438,-1000.000,0
0.827,-254.883,-420.410,-562.012,-30.762,0
0.831,-1000.000,-1000.000,-549.805,-766.602,0
0.835,142.578,-209.961,-563.477,205.566,0
0.839,-759.277,-840.820,-567.871,-1000.000,0
0.842,191.406,174.316,-509.766,-274.414,0
0.846,-1000.000,-1000.000,-562.988,-809.082,0
0.850,-271.484,-364.258,-559.082,436.035,0
0.854,-799.316,-855.957,-586.426,-1000.000,0
0.858,318.359,246.582,-629.883,-572.754,0
0.862,-1000.000,-1000.000,-584.473,996.094,0
0.866,-383.301,-837.402,-523.438,911.621,0
0.870,-870.605,782.227,-568.359,-646.484,0
0.874,704.590,643.066,-629.883,-1000.000,0
0.878,-945.801,-923.340,-555.664,473.633,0
0.882,-818.848,-1000.000,-542.480,-793.945,0
0.886,736.816,64.941,-519.043,50.781,0
0.889,-852.539,-870.117,-562.500,-1000.000,0
0.893,-145.020,-223.145,-586.426,-151.855,0
0.897,-1000.000,-1000.000,-543.945,-778.809,0
0.901,24.902,-218.262,-520.020,216.797,0
0.905,-764.648,-833.496,-565.430,-1000.000,0
0.909,201.172,235.352,-594.727,-274.414,0
0.913,-1000.000,-1000.000,-564.453,-818.848,0
0.917,-274.414,-474.121,-495.605,528.809,0
0.921,-805.664,-891.602,-575.195,-1000.000,0
0.925,408.691,303.711,-662.598,-664.551,0
0.929,-1000.000,-1000.000,-575.195,914.551,0
0.932,-476.562,-965.332,-499.023,-971.191,0
0.936,-956.055,583.008,-591.309,-406.738,0
0.940,889.648,778.809,-677.246,-1000.000,0
0.944,-669.922,-795.410,-555.176,193.359,0
0.948,-969.238,-1000.000,-483.887,-762.695,0
0.952,565.918,-65.430,-568.359,162.109,0
0.956,-812.012,-847.168,-632.812,-1000.000,0
0.960,-31.738,-79.102,-537.598,-262.695,0
0.964,-1000.000,-1000.000,-469.727,-801.270,0
0.968,-111.816,-226.074,-525.879,233.398,0
0.972,-778.809,-829.102,-586.914,-1000.000,0
0.975,214.355,245.605,-545.898,-347.168,0
0.979,-1000.000,-1000.000,-528.809,-854.980,0
0.983,-275.391,-581.055,-564.453,620.117,0
0.987,-816.895,-943.848,-608.398,-1000.000,0
0.991,526.367,413.574,-645.996,-808.594,0
0.995,-1000.000,-1000.000,-578.613,743.652,0
0.999,-579.102,-1000.000,-539.551,-871.582,0
1.003,974.609,380.859,-580.078,-243.652,0
1.007,998.047,930.176,-635.742,-1000.000,0
1.011,-456.055,-603.516,-583.496,85.449,0
1.015,-1000.000,-1000.000,-541.504,-762.207,0
1.019,305.664,-169.434,-532.715,196.289,0
1.022,-776.855,-850.586,-556.641,-1000.000,0
1.026,83.496,34.180,-589.355,-271.973,0
1.030,-1000.000,-1000.000,-603.516,-801.758,0
1.034,-246.094,-270.020,-516.602,336.914,0
1.038,-801.758,-836.426,-529.785,-1000.000,0
1.042,229.492,245.117,-625.488,-452.637,0
1.046,-1000.000,-1000.000,-603.516,-917.480,0
1.050,-271.973,-711.914,-492.188,762.695,0
1.054,-830.078,939.941,-518.555,-830.566,0
1.058,616.699,524.414,-650.879,-948.730,0
1.062,-1000.000,-990.723,-590.332,567.383,0
1.065,-671.875,-1000.000,-487.305,-817.383,0
1.069,895.020,197.266,-507.324,-82.031,0
1.073,-899.414,-962.891,-639.160,-1000.000,0
1.077,-254.883,-430.176,-587.402,-30.762,0
1.081,-1000.000,-1000.000,-516.602,-766.602,0
1.085,140.137,-208.008,-524.902,205.566,0
1.089,-759.766,-842.773,-597.656,-1000.000,0
1.093,191.895,157.715,-574.219,-274.902,0
1.097,-1000.000,-1000.000,-545.410,-808.594,0
1.101,-270.020,-362.793,-557.617,436.035,0
1.105,-799.805,-857.422,-610.840,-1000.000,0
1.108,291.992,246.582,-604.492,-557.129,0
1.112,-1000.000,-1000.000,-562.012,-990.723,0
1.116,-372.070,-843.262,-552.734,891.113,0
1.120,-891.602,776.855,-620.117,-642.090,0
1.124,761.230,635.742,-625.000,-1000.000,0
1.128,-857.910,-929.199,-516.113,386.230,0
1.132,-829.590,-1000.000,-553.223,-784.668,0
1.136,737.305,56.152,-605.469,41.992,0
1.140,-851.074,-878.418,-599.121,-1000.000,0
1.144,-144.043,-238.281,-541.016,-146.973,0
1.148,-1000.000,-1000.000,-585.449,-778.320,0
1.152,15.137,-216.797,-568.848,216.309,0
1.155,-765.625,-834.961,-534.668,-1000.000,0
1.159,202.148,230.957,-553.711,-274.414,0
1.163,-1000.000,-1000.000,-602.051,-818.848,0
1.167,-273.926,-480.957,-549.805,528.809,0
1.171,-805.176,-895.508,-563.477,-1000.000,0
1.175,403.320,301.270,-642.578,-664.551,0
1.179,-1000.000,-1000.000,-612.305,918.457,0
1.183,-475.586,-966.797,-535.156,-981.445,0
1.187,-956.543,582.520,-548.340,-424.805,0
1.191,889.648,770.996,-634.766,-1000.000,0
1.195,-669.922,-804.688,-608.887,194.336,0
1.198,-969.238,-1000.000,-559.570,-764.160,0
1.202,565.918,-62.500,-521.484,156.738,0
1.206,-810.547,-850.098,-580.078,-1000.000,0
1.210,-33.203,-94.238,-610.352,-261.719,0
1.214,-1000.000,-1000.000,-541.992,-800.781,0
1.218,-94.727,-224.609,-496.094,232.422,0
1.222,-775.879,-830.566,-588.379,-1000.000,0
1.226,212.402,245.605,-615.723,-329.102,0
1.230,-1000.000,-1000.000,-566.406,-849.121,0
1.234,-282.227,-581.543,-528.320,617.676,0
1.238,-794.434,-947.266,-590.820,-999.512,0
1.241,470.703,422.852,-640.137,-823.730,0
1.245,-949.707,-1000.000,-570.801,780.762,0
1.249,-300.781,-958.496,-515.625,-977.051,0
1.253,951.660,565.918,-569.336,-427.246,0
1.257,998.535,895.996,-619.141,-1000.000,0
1.261,-460.449,-629.883,-544.434,87.402,0
1.265,-1000.000,-1000.000,-543.457,-768.555,0
1.269,382.812,-156.738,-564.453,196.289,0
1.273,-781.250,-847.168,-585.449,-1000.000,0
1.277,81.055,37.598,-535.645,-271.973,0
1.281,-1000.000,-1000.000,-534.180,-801.270,0
1.285,-236.328,-272.949,-565.918,336.426,0
1.288,-798.828,-836.914,-582.520,-1000.000,0
1.292,228.027,245.605,-549.316,-445.312,0
1.296,-1000.000,-1000.000,-511.230,-914.551,0
1.300,-272.461,-715.332,-558.594,762.695,0
1.304,-827.148,937.012,-566.406,-833.008,0
1.308,592.773,515.137,-577.148,-938.477,0
1.312,-1000.000,-996.094,-608.887,590.332,0
1.316,-666.992,-1000.000,-596.680,-827.637,0
1.320,892.090,200.195,-546.387,-122.559,0
1.324,-896.484,-969.238,-569.824,-1000.000,0
1.328,-259.277,-440.918,-610.840,-26.855,0
1.331,-1000.000,-1000.000,-578.125,-769.531,0
1.335,170.898,-207.520,-557.129,206.055,0
1.339,-757.324,-844.238,-585.938,-1000.000,0
1.343,188.965,153.320,-585.449,-274.414,0
1.347,-1000.000,-1000.000,-563.965,-808.105,0
1.351,-269.531,-370.117,-544.434,435.547,0
1.355,-800.293,-860.840,-579.590,-1000.000,0
1.359,278.320,249.512,-610.352,-540.527,0
1.363,-1000.000,-1000.000,-592.285,-981.934,0
1.367,-369.629,-827.148,-465.820,887.695,0
1.371,-892.578,796.875,-498.535,-640.625,0
1.375,761.719,628.906,-646.484,-1000.000,0
1.378,-857.422,-932.129,-592.773,387.695,0
1.382,-830.078,-1000.000,-546.875,-786.133,0
1.386,737.793,68.848,-569.336,27.832,0
1.390,-850.586,-881.836,-593.750,-1000.000,0
1.394,-144.531,-251.953,-560.547,-144.531,0
1.398,-1000.000,-1000.000,-520.020,-779.297,0
1.402,18.066,-215.820,-541.016,216.797,0
1.406,-765.625,-835.938,-599.609,-1000.000,0
1.410,201.660,225.586,-562.012,-274.414,0
1.414,-1000.000,-1000.000,-519.531,-818.848,0
1.418,-273.926,-472.656,-560.059,528.809,0
1.421,-805.176,-892.578,-610.352,-1000.000,0
1.425,394.531,295.410,-595.215,-669.922,0
1.429,-1000.000,-1000.000,-502.441,928.711,0
1.433,-474.121,-972.168,-530.762,983.887,0
1.437,-957.520,578.125,-598.633,-473.633,0
1.441,890.137,759.766,-584.961,-1000.000,0
1.445,-669.922,-818.359,-536.621,191.895,0
1.449,-969.238,-1000.000,-591.309,-763.672,0
1.453,564.941,-59.570,-570.801,172.363,0
1.457,-806.641,-851.074,-579.590,-1000.000,0
1.461,-39.551,-101.562,-612.793,-264.160,0
1.464,-1000.000,-1000.000,-601.074,-801.758,0
1.468,-35.645,-224.121,-555.664,234.375,0
1.472,-764.160,-830.566,-541.504,-1000.000,0
1.476,205.078,245.605,-611.816,-371.582,0
1.480,-1000.000,-1000.000,-619.629,-863.281,0
1.484,-276.367,-572.754,-539.062,624.512,0
1.488,-815.430,-938.965,-542.480,-1000.000,0
1.492,509.766,394.531,-614.258,-804.688,0
1.496,-1000.000,-1000.000,-628.906,738.770,0
1.500,-575.684,-1000.000,-547.363,-863.770,0
1.504,971.680,379.395,-448.730,-200.195,0
1.508,-995.605,900.391,-550.293,-1000.000,0
1.511,-470.703,-647.461,-643.066,49.316,0
1.515,-1000.000,-1000.000,-589.844,-764.648,0
1.519,382.324,-160.156,-546.387,199.219,0
1.523,-777.344,-851.562,-584.961,-1000.000,0
1.527,76.172,16.113,-600.586,-271.484,0
1.531,-1000.000,-1000.000,-562.988,-802.734,0
1.535,-177.734,-261.230,-550.781,337.402,0
1.539,-783.691,-834.961,-574.707,-1000.000,0
1.543,219.727,245.117,-618.652,-475.098,0
1.547,-1000.000,-1000.000,-551.270,-927.246,0
1.551,-273.926,-697.266,-508.301,766.602,0
1.554,-827.637,955.078,-584.473,-832.031,0
1.558,595.703,503.906,-615.723,-948.730,0
1.562,-1000.000,-998.535,-523.438,568.848,0
1.566,-667.480,-1000.000,-490.234,-819.336,0
1.570,892.090,208.496,-591.797,-91.797,0
1.574,-895.508,-984.863,-600.586,-1000.000,0
1.578,-261.719,-468.750,-565.918,-30.273,0
1.582,-1000.000,-1000.000,-573.730,-767.578,0
1.586,187.500,-206.543,-576.660,206.055,0
1.590,-756.348,-844.727,-531.250,-1000.000,0
1.594,187.500,144.531,-537.109,-274.902,0
1.597,-1000.000,-1000.000,-596.680,-809.082,0
1.601,-270.508,-348.633,-568.359,436.035,0
1.605,-799.805,-853.516,-527.344,-1000.000,0
1.609,296.875,246.094,-563.477,-574.219,0
1.613,-1000.000,-1000.000,-620.117,-999.512,0
1.617,-374.023,-826.660,-574.707,894.531,0
1.621,-885.742,798.828,-545.898,-643.555,0
1.625,738.770,621.094,-581.543,-1000.000,0
1.629,-881.836,-937.012,-617.676,385.254,0
1.633,-825.195,-1000.000,-601.074,-784.180,0
1.637,735.352,76.172,-496.582,51.270,0
1.641,-847.168,-892.090,-522.461,-1000.000,0
1.644,-150.879,-276.855,-629.395,-162.109,0
1.648,-1000.000,-1000.000,-602.051,-781.250,0
1.652,68.848,-214.844,-483.887,218.750,0
1.656,-758.789,-836.914,-475.586,-1000.000,0
1.660,196.289,222.656,-617.188,-273.926,0
1.664,-1000.000,-1000.000,-612.305,-818.848,0
1.668,-272.461,-469.727,-549.316,528.809,0
1.672,-803.223,-892.578,-560.547,-1000.000,0
1.676,342.773,285.156,-624.023,-667.480,0
1.680,-1000.000,-1000.000,-611.816,921.387,0
1.684,-464.844,-961.426,-537.109,-990.723,0
1.687,-961.426,590.332,-586.914,-443.359,0
1.691,891.602,757.812,-661.133,-1000.000,0
1.695,-669.434,-821.289,-601.074,198.242,0
1.699,-969.238,-1000.000,-561.035,-767.578,0
1.703,564.941,-47.852,-590.820,116.699,0
1.707,-807.129,-849.121,-596.191,-1000.000,0
1.711,-39.062,-103.516,-613.770,-256.348,0
1.715,-1000.000,-1000.000,-579.590,-800.781,0
1.719,-42.969,-224.121,-535.645,229.492,0
1.723,-765.625,-830.566,-558.594,-1000.000,0
1.727,205.566,245.605,-530.762,-271.973,0
1.730,-1000.000,-1000.000,-537.109,-830.078,0
1.734,-275.879,-578.613,-582.520,615.234,0
1.738,-814.453,-942.383,-568.359,-1000.000,0
1.742,496.094,390.137,-588.867,-702.148,0
1.746,-1000.000,-1000.000,-577.148,863.281,0
1.750,-573.242,-1000.000,-549.316,-895.996,0
1.754,970.703,370.605,-573.730,-249.512,0
1.758,-995.117,902.344,-536.133,-1000.000,0
1.762,-470.703,-645.996,-530.273,98.145,0
1.766,-1000.000,-1000.000,-574.707,-762.207,0
1.770,382.324,-162.109,-538.086,195.312,0
1.774,-779.297,-853.516,-520.020,-1000.000,0
1.777,78.613,12.207,-582.031,-271.973,0
1.781,-1000.000,-1000.000,-608.887,-798.340,0
1.785,-205.078,-265.137,-537.598,333.496,0
1.789,-791.016,-836.914,-521.484,-1000.000,0
1.793,223.145,245.605,-621.094,-378.418,0
1.797,-1000.000,-1000.000,-604.980,-886.719,0
1.801,-272.949,-702.637,-558.594,754.883,0
1.805,-827.637,950.195,-572.754,-840.332,0
1.809,596.191,501.953,-611.328,-892.090,0
1.813,-1000.000,-997.559,-596.191,652.832,0
1.817,-667.969,-1000.000,-504.883,-836.426,0
1.820,891.602,193.359,-500.488,-119.629,0
1.824,-895.508,-983.887,-606.934,-1000.000,0
1.828,-261.719,-465.820,-592.773,-24.902,0
1.832,-1000.000,-1000.000,-557.617,-769.043,0
1.836,187.500,-205.566,-552.246,206.055,0
1.840,-756.348,-845.703,-562.500,-1000.000,0
1.844,187.988,137.207,-593.750,-274.414,0
1.848,-1000.000,-1000.000,-558.105,-806.152,0
1.852,-268.555,-354.004,-559.570,429.199,0
1.856,-800.293,-856.445,-585.449,-1000.000,0
1.860,270.020,246.094,-604.492,-486.816,0
1.863,-1000.000,-1000.000,-522.461,-956.055,0
1.867,-371.094,-841.797,-506.836,884.766,0
1.871,-883.789,781.250,-610.840,-654.297,0
1.875,721.680,612.793,-593.262,-1000.000,0
1.879,-899.902,-942.383,-591.309,486.328,0
1.883,-828.125,-1000.000,-608.398,-796.875,0
1.887,752.930,65.918,-584.473,-47.363,0
1.891,-903.320,-894.531,-575.684,-1000.000,0
1.895,-239.258,-278.809,-586.914,-44.922,0
1.899,-1000.000,-1000.000,-594.238,-793.457,0
1.903,74.219,-214.355,-590.332,217.773,0
1.907,-760.254,-837.402,-517.578,-1000.000,0
1.910,195.801,221.680,-535.156,-274.414,0
1.914,-1000.000,-1000.000,-610.840,-816.406,0
1.918,-271.973,-474.609,-577.637,528.809,0
1.922,-803.223,-895.020,-500.977,-1000.000,0
1.926,337.402,280.762,-526.855,-579.590,0
1.930,-1000.000,-1000.000,-606.934,975.586,0
1.934,-464.844,-964.844,-563.477,995.117,0
1.938,-958.984,586.914,-542.969,-448.242,0
1.942,878.906,744.141,-598.145,-1000.000,0
1.946,-686.035,-831.543,-615.234,264.160,0
1.950,-966.797,-1000.000,-580.566,-772.949,0
1.953,564.941,-56.152,-486.328,89.355,0
1.957,-809.082,-856.934,-490.234,-1000.000,0
1.961,-36.133,-128.906,-627.441,-246.094,0
1.965,-1000.000,-1000.000,-576.172,-800.781,0
1.969,-67.871,-221.191,-515.137,229.492,0
1.973,-770.508,-832.031,-583.984,-1000.000,0
1.977,208.984,246.094,-626.953,-271.973,0
1.981,-1000.000,-1000.000,-588.867,-829.590,0
1.985,-275.391,-570.312,-548.340,613.770,0
1.989,-814.453,-937.988,-571.289,-1000.000,0
1.993,494.141,385.742,-606.445,-725.098,0
1.996,-1000.000,-1000.000,-596.680,838.379,0
2.000,-572.754,-1000.000,-549.805,-890.625,0
2.004,970.215,400.391,-547.363,-251.465,0
2.008,-995.117,896.484,-603.027,-1000.000,0
2.012,-470.703,-651.367,-550.781,102.051,0
2.016,-1000.000,-1000.000,-493.652,-761.719,0
2.020,382.324,-154.785,-580.078,194.824,0
2.024,-777.832,-854.492,-592.285,-1000.000,0
2.028,76.172,-7.324,-570.801,-270.508,0
2.032,-1000.000,-1000.000,-585.938,-799.316,0
2.036,-178.223,-258.789,-581.055,307.129,0
2.040,-783.691,-836.914,-564.941,-1000.000,0
2.043,219.727,246.094,-584.961,-374.023,0
2.047,-1000.000,-1000.000,-589.355,-889.160,0
2.051,-273.926,-687.500,-588.867,757.812,0
2.055,-828.125,964.355,-557.129,-846.680,0
2.059,598.633,495.117,-545.898,-870.605,0
2.063,-1000.000,-1000.000,-617.676,685.059,0
2.067,-668.457,-1000.000,-622.559,-844.727,0
2.071,892.090,227.539,-535.156,-141.113,0
2.075,-895.508,-988.770,-510.254,-1000.000,0
2.079,-261.230,-475.586,-629.395,-14.648,0
2.083,-1000.000,-1000.000,-604.980,-769.043,0
2.086,187.500,-203.125,-561.035,205.566,0
2.090,-756.348,-848.633,-567.871,-1000.000,0
2.094,187.988,105.469,-583.496,-274.414,0
2.098,-1000.000,-1000.000,-594.238,-805.664,0
2.102,-268.066,-345.703,-513.184,422.852,0
2.106,-799.316,-857.422,-514.160,-1000.000,0
2.110,257.324,248.535,-624.023,-479.004,0
2.114,-1000.000,-1000.000,-618.164,-954.102,0
2.118,-349.121,-815.430,-533.691,888.184,0
2.122,-865.723,813.477,-524.414,-664.551,0
2.126,692.383,608.398,-591.309,-988.770,0
2.130,-951.172,-943.848,-618.164,537.598,0
2.133,-817.383,-1000.000,-537.109,-810.547,0
2.137,735.352,86.426,-516.113,-25.391,0
2.141,-848.633,-897.461,-574.219,-1000.000,0
2.145,-151.855,-290.039,-601.562,-138.184,0
2.149,-1000.000,-1000.000,-522.461,-783.203,0
2.153,77.637,-213.867,-516.602,217.773,0
2.157,-757.324,-837.402,-596.191,-1000.000,0
2.161,195.312,212.402,-585.938,-274.414,0
2.165,-1000.000,-1000.000,-576.172,-818.359,0
2.169,-272.949,-456.543,-576.660,528.809,0
2.173,-803.711,-888.184,-576.660,-1000.000,0
2.176,355.957,277.344,-611.328,-641.113,0
2.180,-1000.000,-1000.000,-614.258,937.988,0
2.184,-467.285,-950.684,-570.801,-996.582,0
2.188,-959.961,609.863,-560.547,-441.406,0
2.192,891.602,736.328,-533.691,-1000.000,0
2.196,-669.922,-841.309,-534.180,198.730,0
2.200,-969.238,-1000.000,-606.934,-768.066,0
2.204,564.941,-29.297,-575.684,108.887,0
2.208,-806.641,-853.027,-565.430,-1000.000,0
2.212,-39.551,-136.230,-619.141,-254.883,0
2.216,-1000.000,-1000.000,-592.285,-804.199,0
2.219,-35.645,-221.680,-546.875,233.398,0
2.223,-764.160,-832.520,-541.504,-1000.000,0
2.227,205.078,245.605,-618.164,-326.660,0
2.231,-1000.000,-1000.000,-630.859,-848.145,0
2.235,-275.391,-566.406,-550.293,616.699,0
2.239,-812.012,-936.035,-540.039,-1000.000,0
2.243,468.262,369.629,-607.422,-809.570,0
2.247,-1000.000,-1000.000,-628.906,744.629,0
2.251,-561.523,-1000.000,-555.176,-874.023,0
2.255,973.633,416.504,-511.230,-252.930,0
2.259,998.047,871.582,-592.285,-1000.000,0
2.263,-479.492,-683.105,-649.902,86.426,0
2.266,-1000.000,-1000.000,-558.105,-763.184,0
2.270,382.324,-141.113,-485.352,196.289,0
2.274,-775.879,-853.027,-590.332,-1000.000,0
2.278,74.219,-16.602,-620.117,-271.973,0
2.282,-1000.000,-1000.000,-570.312,-800.293,0
2.286,-150.879,-252.441,-553.223,335.449,0
2.290,-776.367,-835.449,-550.781,-1000.000,0
2.294,215.332,245.117,-605.469,-416.016,0
2.298,-1000.000,-1000.000,-551.758,-902.344,0
2.302,-274.414,-685.547,-476.562,757.324,0
2.306,-819.336,967.285,-558.594,-831.055,0
2.309,528.809,474.609,-609.863,-937.012,0
2.313,-1000.000,-1000.000,-546.875,597.168,0
2.317,-653.320,-1000.000,-522.949,-832.031,0
2.321,886.230,231.445,-590.332,-141.602,0
2.325,-894.043,994.629,-581.055,-1000.000,0
2.329,-261.719,-501.465,-580.078,-24.902,0
2.333,-1000.000,-1000.000,-591.797,-770.508,0
2.337,187.500,-198.730,-586.914,206.543,0
2.341,-756.348,-847.168,-532.715,-1000.000,0
2.345,187.988,108.398,-560.547,-274.414,0
2.349,-1000.000,-1000.000,-607.422,-807.617,0
2.352,-266.602,-333.496,-573.242,435.059,0
2.356,-799.316,-852.051,-550.781,-1000.000,0
2.360,231.934,246.094,-586.914,-522.461,0
2.364,-1000.000,-1000.000,-613.770,-972.656,0
2.368,-333.008,-812.500,-593.750,885.742,0
2.372,-869.141,818.359,-548.340,-641.602,0
2.376,692.383,597.656,-559.570,-1000.000,0
2.380,-926.270,-951.660,-614.746,407.715,0
2.384,-816.895,-1000.000,-611.328,-794.434,0
2.388,733.398,98.633,-512.695,-20.508,0
2.392,-847.168,-903.809,-497.559,-1000.000,0
2.396,-151.855,-304.199,-636.230,-139.160,0
2.399,-1000.000,-1000.000,-614.258,-782.715,0
2.403,77.637,-213.867,-542.969,217.773,0
2.407,-757.324,-838.379,-559.082,-1000.000,0
2.411,195.312,209.961,-634.277,-274.414,0
2.415,-1000.000,-1000.000,-619.141,-817.383,0
2.419,-271.973,-447.754,-550.781,529.297,0
2.423,-802.734,-884.766,-546.875,-1000.000,0
2.427,336.914,262.695,-605.469,-605.469,0
2.431,-1000.000,-1000.000,-607.422,960.938,0
2.435,-455.078,-945.801,-496.582,996.094,0
2.439,-943.848,617.188,-500.977,-438.477,0
2.442,843.262,720.215,-629.883,-1000.000,0
2.446,-729.004,-857.910,-606.445,199.707,0
2.450,-960.938,-1000.000,-564.453,-768.555,0
2.454,562.012,-25.391,-584.961,101.074,0
2.458,-800.781,-845.215,-577.148,-1000.000,0
2.462,-58.105,-155.762,-618.652,-235.352,0
2.466,-1000.000,-1000.000,-602.051,-857.910,0
2.470,52.734,-133.301,-547.852,141.602,0
2.474,-775.391,-842.773,-541.016,-1000.000,0
2.478,205.078,246.094,-569.824,-271.973,0
2.482,-1000.000,-1000.000,-596.680,-832.031,0
2.485,-274.902,-554.688,-592.773,610.840,0
2.489,-810.059,-929.199,-575.684,-1000.000,0
2.493,436.035,353.027,-533.691,-769.043,0
2.497,-1000.000,-1000.000,-516.602,791.016,0
2.501,-564.941,-1000.000,-589.355,-882.812,0
2.505,975.586,405.762,-568.359,-250.977,0
2.509,974.121,858.887,-562.012,-1000.000,0
2.513,-520.508,-701.172,-618.164,86.426,0
2.517,-1000.000,-1000.000,-584.961,-763.184,0
2.521,382.324,-138.672,-540.039,196.289,0
2.525,-777.344,-852.051,-549.805,-1000.000,0
2.529,73.730,-19.531,-610.840,-270.508,0
2.532,-1000.000,-1000.000,-615.234,-800.293,0
2.536,-150.879,-239.258,-536.621,313.477,0
2.540,-776.367,-831.055,-444.336,-1000.000,0
2.544,215.820,243.164,-578.125,-410.156,0
2.548,-1000.000,-1000.000,-655.273,-904.785,0
2.552,-274.414,-687.500,-579.102,766.602,0
2.556,-818.848,966.309,-559.570,-854.980,0
2.560,528.320,469.727,-597.656,-860.840,0
2.564,-1000.000,-1000.000,-613.770,711.426,0
2.568,-646.973,-1000.000,-544.434,-847.168,0
2.572,891.113,248.535,-522.461,-140.625,0
2.575,-895.020,994.141,-598.145,-1000.000,0
2.579,-261.230,-504.883,-625.000,-24.414,0
2.583,-1000.000,-1000.000,-548.340,-770.508,0
2.587,187.500,-191.895,-527.344,206.543,0
2.591,-756.348,-846.191,-570.801,-1000.000,0
2.595,187.988,99.609,-603.027,-274.414,0
2.599,-1000.000,-1000.000,-538.574,-806.641,0
2.603,-266.602,-328.613,-512.207,434.570,0
2.607,-797.852,-851.074,-581.543,-1000.000,0
2.611,230.469,246.094,-585.449,-495.605,0
2.615,-1000.000,-1000.000,-577.637,-959.473,0
2.618,-319.824,-807.617,-580.566,883.789,0
2.622,-850.098,825.684,-581.543,-647.949,0
2.626,629.883,585.449,-577.637,-1000.000,0
2.630,-989.258,-958.984,-592.285,453.125,0
2.634,-805.176,-1000.000,-596.191,-800.293,0
2.638,730.469,107.910,-570.312,-28.809,0
2.642,-847.656,-910.645,-572.754,-1000.000,0
2.646,-151.855,-318.848,-600.586,-138.184,0
2.650,-1000.000,-1000.000,-605.957,-783.203,0
2.654,77.637,-213.379,-580.566,217.773,0
2.658,-757.324,-838.379,-510.742,-1000.000,0
2.662,195.312,208.496,-538.086,-274.414,0
2.665,-1000.000,-1000.000,-613.770,-817.383,0
2.669,-271.973,-438.965,-576.660,529.297,0
2.673,-801.758,-881.348,-511.719,-1000.000,0
2.677,335.938,259.277,-564.453,-605.957,0
2.681,-1000.000,-1000.000,-622.559,959.473,0
2.685,-436.035,-930.176,-572.266,999.512,0
2.689,-915.527,642.578,-477.539,-446.777,0
2.693,774.902,703.125,-511.230,-1000.000,0
2.697,-810.059,-871.094,-633.301,243.164,0
2.701,-949.219,-1000.000,-588.867,-770.508,0
2.705,562.500,-22.461,-535.156,109.863,0
2.708,-809.570,-860.840,-567.871,-1000.000,0
2.712,-39.551,-156.738,-626.465,-255.371,0
2.716,-1000.000,-1000.000,-573.730,-801.758,0
2.720,-35.645,-220.703,-537.598,230.469,0
2.724,-764.160,-832.031,-566.895,-1000.000,0
2.728,204.590,246.094,-624.512,-283.203,0
2.732,-1000.000,-1000.000,-576.660,-833.496,0
2.736,-274.902,-541.016,-516.602,613.770,0
2.740,-808.594,-921.875,-575.195,-1000.000,0
2.744,435.059,349.121,-623.535,-755.859,0
2.748,-1000.000,-1000.000,-594.727,804.199,0
2.752,-534.180,-1000.000,-456.543,-884.277,0
2.755,-992.188,433.105,-517.090,-252.930,0
2.759,923.828,841.309,-618.164,-1000.000,0
2.763,-584.961,-720.215,-607.422,101.562,0
2.767,-1000.000,-1000.000,-598.145,-761.719,0
2.771,382.324,-140.625,-574.219,195.312,0
2.775,-779.297,-853.516,-555.176,-1000.000,0
2.779,73.730,-22.949,-560.059,-270.020,0
2.783,-1000.000,-1000.000,-583.984,-798.828,0
2.787,-150.879,-236.328,-585.449,299.316,0
2.791,-776.367,-830.566,-562.012,-1000.000,0
2.795,215.820,244.141,-583.496,-372.559,0
2.798,-1000.000,-1000.000,-587.891,-889.160,0
2.802,-274.902,-661.133,-583.496,754.395,0
2.806,-818.848,991.211,-556.152,-836.426,0
2.810,528.809,460.938,-548.828,-907.715,0
2.814,-1000.000,-1000.000,-619.141,636.719,0
2.818,-639.648,-1000.000,-612.793,-837.891,0
2.822,906.250,256.348,-526.367,-140.625,0
2.826,-922.852,978.027,-533.691,-1000.000,0
2.830,-306.641,-527.832,-620.605,-24.902,0
2.834,-1000.000,-1000.000,-582.520,-770.508,0
2.838,188.965,-193.359,-512.207,206.543,0
2.841,-757.812,-847.168,-523.926,-1000.000,0
2.845,187.988,91.797,-598.633,-273.926,0
2.849,-1000.000,-1000.000,-599.121,-806.152,0
2.853,-266.602,-310.547,-502.441,417.969,0
2.857,-795.898,-844.727,-477.051,-1000.000,0
2.861,227.539,244.629,-620.117,-504.883,0
2.865,-1000.000,-1000.000,-623.535,-966.797,0
2.869,-271.484,-789.551,-524.414,884.766,0
2.873,-833.008,848.145,-507.812,-644.043,0
2.877,621.582,577.148,-595.215,-1000.000,0
2.881,-989.746,-959.961,-626.953,428.711,0
2.885,-794.434,-1000.000,-572.754,-796.875,0
2.888,748.047,110.352,-552.734,-29.785,0
2.892,-855.957,-926.270,-563.965,-1000.000,0
2.896,-172.852,-345.703,-585.938,-125.977,0
2.900,-1000.000,-1000.000,-574.707,-781.250,0
2.904,79.590,-212.402,-568.359,216.309,0
2.908,-758.789,-839.844,-575.195,-1000.000,0
2.912,195.312,199.707,-571.777,-274.902,0
2.916,-1000.000,-1000.000,-550.293,-817.383,0
2.920,-272.461,-437.012,-574.707,528.809,0
2.924,-801.270,-881.836,-579.102,-1000.000,0
2.928,334.961,256.348,-554.688,-604.492,0
2.931,-1000.000,-1000.000,-527.832,960.449,0
2.935,-417.480,-926.758,-573.730,999.512,0
2.939,-913.086,647.949,-561.035,-446.777,0
2.943,788.574,699.219,-535.645,-1000.000,0
2.947,-786.621,-875.000,-502.441,245.117,0
2.951,-953.613,-1000.000,-568.359,-772.949,0
2.955,564.453,-13.184,-592.773,85.938,0
2.959,-812.012,-865.234,-565.918,-1000.000,0
2.963,-54.199,-172.852,-629.883,-251.953,0
2.967,-1000.000,-1000.000,-615.234,-802.734,0
2.971,-34.180,-220.215,-561.035,230.469,0
2.974,-765.137,-833.984,-538.574,-1000.000,0
2.978,205.078,246.094,-613.770,-271.973,0
2.982,-1000.000,-1000.000,-634.277,-829.590,0
2.986,-274.902,-552.246,-564.941,616.211,0
2.990,-808.594,-935.059,-545.898,-1000.000,0
2.994,435.059,350.586,-607.910,-710.449,0
2.998,-1000.000,-1000.000,-645.020,932.617,0
3.002,-537.109,-901.367,-585.938,954.590,0
3.006,-988.281,702.637,-521.484,-527.832,0
3.010,908.203,816.895,-576.660,-1000.000,0
3.014,-608.398,-730.469,-638.672,107.910,0
3.018,-1000.000,-1000.000,-545.898,-771.973,0
3.021,385.254,-130.859,-487.793,194.824,0
3.025,-783.203,-856.445,-578.125,-1000.000,0
3.029,46.875,-43.945,-614.746,-270.996,0
3.033,-1000.000,-1000.000,-541.504,-798.828,0
3.037,-147.461,-239.746,-446.289,319.824,0
3.041,-778.809,-833.008,-517.578,-1000.000,0
3.045,215.820,245.605,-615.723,-375.977,0
3.049,-1000.000,-1000.000,-612.305,-887.695,0
3.053,-274.902,-656.250,-586.426,755.371,0
3.057,-818.848,997.070,-564.453,-840.332,0
3.061,528.809,450.195,-586.914,-893.555,0
3.064,-1000.000,-1000.000,-582.031,655.273,0
3.068,-641.602,-1000.000,-575.195,-840.820,0
3.072,913.574,259.766,-576.660,-140.625,0
3.076,-941.895,970.703,-568.359,-1000.000,0
3.080,-342.285,-539.062,-573.730,-24.902,0
3.084,-1000.000,-1000.000,-585.449,-770.508,0
3.088,189.453,-191.895,-588.867,206.543,0
3.092,-759.277,-849.609,-555.176,-1000.000,0
3.096,187.988,79.590,-586.914,-273.438,0
3.100,-1000.000,-1000.000,-612.793,-805.664,0
3.104,-266.602,-306.641,-578.613,402.344,0
3.107,-795.410,-844.727,-539.551,-1000.000,0
3.111,227.539,245.605,-575.684,-490.234,0
3.115,-1000.000,-1000.000,-629.883,-961.426,0
3.119,-270.508,-774.414,-587.402,881.836,0
3.123,-834.961,866.211,-539.551,-640.625,0
3.127,634.766,577.148,-581.543,-1000.000,0
3.131,-988.281,-960.449,-607.910,415.527,0
3.135,-754.395,-1000.000,-589.844,-796.387,0
3.139,794.922,126.465,-510.254,-28.320,0
3.143,-865.234,-924.316,-489.746,-1000.000,0
3.147,-172.363,-346.680,-614.258,-138.184,0
3.151,-1000.000,-1000.000,-597.656,-783.203,0
3.154,79.590,-211.914,-542.480,217.773,0
3.158,-758.789,-839.355,-559.082,-1000.000,0
3.162,195.801,194.336,-624.512,-274.414,0
3.166,-1000.000,-1000.000,-610.840,-815.918,0
3.170,-271.973,-419.434,-546.875,519.043,0
3.174,-799.805,-875.000,-539.551,-1000.000,0
3.178,333.984,249.023,-608.398,-589.844,0
3.182,-1000.000,-1000.000,-621.094,968.262,0
3.186,-391.113,-909.668,-493.164,995.117,0
3.190,-894.531,671.875,-496.582,-441.406,0
3.194,762.695,694.824,-613.281,-1000.000,0
3.197,-824.219,-880.371,-577.637,222.168,0
3.201,-917.969,-1000.000,-536.621,-770.996,0
3.205,593.262,-3.906,-575.684,95.703,0
3.209,-785.156,-830.566,-583.008,-1000.000,0
3.213,-110.352,-241.699,-601.074,-181.641,0
3.217,-1000.000,-1000.000,-584.961,-983.398,0
3.221,341.797,156.738,-536.621,-146.973,0
3.225,-783.691,-852.051,-535.645,-1000.000,0
3.229,192.871,233.887,-587.891,-259.766,0
3.233,-1000.000,-1000.000,-611.328,-844.727,0
3.237,-274.902,-530.273,-577.637,616.211,0
3.240,-808.105,-916.016,-558.594,-1000.000,0
3.244,434.570,331.055,-535.156,-692.383,0
3.248,-1000.000,-1000.000,-527.832,873.535,0
3.252,-520.996,-1000.000,-580.078,-895.020,0
3.256,-977.051,459.473,-562.500,-254.395,0
3.260,897.461,833.008,-560.547,-1000.000,0
3.264,-620.117,-731.934,-603.027,134.277,0
3.268,-1000.000,-1000.000,-578.613,-759.277,0
3.272,387.207,-116.211,-553.223,192.383,0
3.276,-780.762,-851.562,-535.645,-1000.000,0
3.280,73.730,-42.480,-614.746,-269.043,0
3.284,-1000.000,-1000.000,-634.277,-799.316,0
3.287,-150.879,-228.027,-550.781,283.203,0
3.291,-776.367,-828.613,-532.227,-1000.000,0
3.295,215.820,244.141,-622.070,-370.117,0
3.299,-1000.000,-1000.000,-633.789,-891.602,0
3.303,-274.902,-633.789,-527.832,762.207,0
3.307,-818.359,-984.375,-510.254,-857.422,0
3.311,528.809,447.266,-615.723,-829.590,0
3.315,-1000.000,-1000.000,-623.047,736.816,0
3.319,-622.070,-1000.000,-520.508,-846.680,0
3.323,932.129,284.180,-503.906,-149.902,0
3.327,-960.449,968.262,-609.863,-1000.000,0
3.330,-367.188,-544.922,-621.094,64.941,0
3.334,-1000.000,-1000.000,-578.613,-758.789,0
3.338,189.941,-187.012,-566.895,196.777,0
3.342,-760.254,-846.680,-574.707,-1000.000,0
3.346,187.988,83.496,-584.961,-274.902,0
3.350,-1000.000,-1000.000,-559.570,-804.688,0
3.354,-266.602,-301.270,-565.430,407.715,0
3.358,-795.898,-841.797,-568.848,-1000.000,0
3.362,228.516,243.164,-591.309,-462.891,0
3.366,-1000.000,-1000.000,-548.828,-950.195,0
3.370,-284.668,-792.480,-527.832,887.695,0
3.373,-833.984,847.168,-588.867,-668.457,0
3.377,611.816,558.105,-591.797,-969.727,0
3.381,-1000.000,-974.121,-580.566,565.430,0
3.385,-774.414,-1000.000,-574.707,-806.641,0
3.389,765.625,122.559,-579.102,-39.551,0
3.393,-858.887,-924.805,-577.637,-1000.000,0
3.397,-169.922,-347.656,-574.707,-35.645,0
3.401,-1000.000,-1000.000,-583.984,-763.672,0
3.405,79.102,-212.402,-568.359,205.078,0
3.409,-758.789,-838.379,-520.508,-1000.000,0
3.413,195.801,203.125,-540.039,-275.391,0
3.417,-1000.000,-1000.000,-568.359,-808.105,0
3.420,-272.461,-418.457,-565.430,458.496,0
3.424,-802.246,-873.047,-520.020,-1000.000,0
3.428,336.426,245.117,-544.922,-475.098,0
3.432,-1000.000,-1000.000,-620.117,-978.027,0
3.436,-455.078,-932.617,-564.453,972.168,0
3.440,-921.387,640.625,-541.992,-508.789,0
3.444,771.484,692.383,-599.121,-1000.000,0
3.448,-855.469,-910.156,-628.418,472.656,0
3.452,-870.117,-1000.000,-575.195,-840.820,0
3.456,675.293,84.961,-554.199,-14.160,0
3.460,-824.219,-874.023,-597.168,-1000.000,0
3.463,-39.062,-172.852,-631.348,-150.879,0
3.467,-1000.000,-1000.000,-578.613,-778.320,0
3.471,-35.645,-220.215,-535.645,215.820,0
3.475,-764.160,-833.496,-584.961,-1000.000,0
3.479,205.078,245.605,-631.836,-274.414,0
3.483,-1000.000,-1000.000,-565.430,-819.336,0
3.487,-274.902,-542.480,-513.672,544.434,0
3.491,-808.105,-923.340,-589.844,-1000.000,0
3.495,435.059,315.918,-616.211,-606.445,0
3.499,-1000.000,-1000.000,-603.516,928.223,0
3.503,-527.832,-1000.000,-560.547,-922.852,0
3.507,-983.887,448.730,-567.871,-290.527,0
3.510,909.180,827.148,-622.559,-1000.000,0
3.514,-612.305,-739.746,-552.734,187.012,0
3.518,-1000.000,-1000.000,-516.113,-750.000,0
3.522,432.129,-92.773,-592.285,169.434,0
3.526,-839.844,-906.738,-587.891,-1000.000,0
3.530,-14.160,-132.324,-525.879,-178.223,0
3.534,-1000.000,-1000.000,-505.371,-809.570,0
3.538,-150.879,-228.027,-578.125,232.422,0
3.542,-778.809,-831.055,-575.195,-1000.000,0
3.546,215.820,243.652,-589.355,-341.309,0
3.550,-1000.000,-1000.000,-579.102,-854.492,0
3.553,-274.414,-634.277,-560.059,624.512,0
3.557,-818.848,-983.398,-574.707,-1000.000,0
3.561,528.809,435.059,-520.508,-804.688,0
3.565,-1000.000,-1000.000,-546.875,734.375,0
3.569,-645.020,-1000.000,-616.699,-854.492,0
3.573,933.105,273.438,-552.734,-180.176,0
3.577,-990.723,953.125,-557.617,-1000.000,0
3.581,-433.594,-565.430,-616.699,78.613,0
3.585,-1000.000,-1000.000,-587.891,-751.465,0
3.589,219.727,-166.504,-560.547,177.246,0
3.593,-819.336,-903.809,-561.523,-1000.000,0
3.596,99.609,-12.207,-577.148,-183.594,0
3.600,-1000.000,-1000.000,-587.891,-812.988,0
3.604,-267.090,-291.992,-511.719,337.402,0
3.608,-797.852,-841.797,-483.398,-1000.000,0
3.612,227.539,243.164,-623.535,-460.449,0
3.616,-1000.000,-1000.000,-614.746,-928.223,0
3.620,-272.461,-776.855,-554.688,787.598,0
3.624,-830.078,866.699,-563.477,-802.246,0
3.628,611.816,553.711,-604.980,-951.172,0
3.632,-1000.000,-976.074,-604.004,565.430,0
3.636,-742.676,-1000.000,-561.035,-812.988,0
3.640,810.547,137.207,-574.219,-60.547,0
3.643,-878.418,-937.012,-585.938,-1000.000,0
3.647,-213.867,-372.070,-587.891,-33.203,0
3.651,-1000.000,-1000.000,-551.270,-765.137,0
3.655,83.008,-211.426,-568.359,205.078,0
3.659,-761.230,-839.355,-611.328,-1000.000,0
3.663,195.801,191.895,-589.355,-274.414,0
3.667,-1000.000,-1000.000,-541.992,-808.105,0
3.671,-271.973,-402.344,-568.359,435.547,0
3.675,-798.828,-868.164,-594.238,-1000.000,0
3.679,333.496,246.094,-592.773,-534.668,0
3.683,-1000.000,-1000.000,-584.961,-999.023,0
3.686,-378.418,-902.344,-583.008,942.871,0
3.690,-887.207,688.965,-558.105,-556.641,0
3.694,754.395,672.363,-540.039,-1000.000,0
3.698,-840.820,-900.879,-546.387,382.812,0
3.702,-892.090,-1000.000,-604.004,-777.832,0
3.706,643.066,16.113,-574.219,73.730,0
3.710,-829.102,-866.699,-549.805,-1000.000,0
3.714,-78.125,-191.895,-583.984,-150.391,0
3.718,-1000.000,-1000.000,-568.359,-775.879,0
3.722,-31.250,-219.238,-549.316,215.820,0
3.726,-767.090,-833.984,-500.000,-1000.000,0
3.729,205.566,238.770,-530.273,-274.414,0
3.733,-1000.000,-1000.000,-610.840,-818.848,0
3.737,-274.902,-520.020,-552.246,533.691,0
3.741,-806.641,-912.109,-522.461,-1000.000,0
3.745,434.082,315.918,-602.539,-625.977,0
3.749,-1000.000,-1000.000,-635.742,922.852,0
3.753,-481.445,-1000.000,-549.805,-940.430,0
3.757,-951.660,502.441,-525.879,-333.008,0
3.761,877.441,811.523,-604.980,-1000.000,0
3.765,-639.160,-754.883,-619.141,189.453,0
3.769,-1000.000,-1000.000,-540.039,-758.301,0
3.773,406.738,-115.234,-523.438,188.477,0
3.776,-790.039,-856.445,-596.191,-1000.000,0
3.780,20.508,-63.965,-610.352,-266.602,0
3.784,-1000.000,-1000.000,-523.438,-795.410,0
3.788,-144.043,-225.586,-491.211,228.516,0
3.792,-780.273,-829.590,-597.168,-1000.000,0
3.796,216.797,244.629,-618.164,-279.785,0
3.800,-1000.000,-1000.000,-588.867,-832.520,0
3.804,-274.902,-622.070,-583.008,611.816,0
3.808,-817.383,-971.680,-576.660,-1000.000,0
3.812,528.809,421.875,-595.703,-770.508,0
3.816,-1000.000,-1000.000,-587.891,769.043,0
3.819,-586.914,-1000.000,-581.543,-853.516,0
3.823,995.117,318.359,-588.379,-190.430,0
3.827,934.082,885.254,-600.098,-1000.000,0
3.831,-525.879,-672.852,-585.449,167.969,0
3.835,-1000.000,-1000.000,-563.477,-769.043,0
3.839,200.195,-186.035,-589.355,196.289,0
3.843,-768.066,-854.004,-569.824,-1000.000,0
3.847,156.738,58.594,-561.523,-271.973,0
3.851,-1000.000,-1000.000,-606.934,-799.316,0
3.855,-262.207,-293.945,-597.656,334.473,0
3.859,-797.852,-842.285,-549.316,-1000.000,0
3.862,228.516,246.094,-578.125,-393.066,0
3.866,-1000.000,-1000.000,-613.281,-906.738,0
3.870,-271.973,-757.324,-573.242,801.270,0
3.874,-830.078,890.625,-562.500,-771.484,0
3.878,616.211,544.434,-581.055,-936.523,0
3.882,-1000.000,-979.980,-592.773,592.285,0
3.886,-675.781,-1000.000,-590.820,-814.941,0
3.890,887.695,150.879,-510.254,-52.246,0
3.894,-896.973,-945.312,-524.414,-1000.000,0
3.898,-232.422,-389.648,-626.953,-34.180,0
3.902,-1000.000,-1000.000,-589.844,-764.648,0
3.906,99.609,-209.473,-490.234,205.566,0
3.909,-761.719,-842.773,-510.742,-1000.000,0
3.913,194.824,169.434,-622.070,-274.414,0
3.917,-1000.000,-1000.000,-594.238,-806.641,0
3.921,-272.461,-402.832,-513.672,434.570,0
3.925,-798.828,-871.582,-518.066,-1000.000,0
3.929,333.496,248.047,-614.258,-485.840,0
3.933,-1000.000,-1000.000,-600.586,-972.656,0
3.937,-378.418,-891.602,-534.668,931.641,0
3.941,-887.695,708.984,-577.148,-557.617,0
3.945,757.324,652.832,-620.117,-1000.000,0
3.949,-848.633,-917.480,-570.801,390.625,0
3.952,-862.793,-1000.000,-512.207,-778.809,0
3.956,693.359,21.484,-578.613,76.172,0
3.960,-840.332,-871.582,-606.445,-1000.000,0
3.964,-158.203,-241.699,-606.934,-132.324,0
3.968,-1000.000,-1000.000,-586.426,-832.520,0
3.972,63.477,-129.395,-557.617,127.441,0
3.976,-782.227,-846.191,-572.754,-1000.000,0
3.980,206.543,235.352,-553.223,-274.902,0
3.984,-1000.000,-1000.000,-541.504,-825.195,0
3.988,-274.902,-502.441,-600.586,559.570,0
3.992,-806.641,-905.273,-572.266,-1000.000,0
3.995,434.082,307.129,-594.238,-663.574,0
3.999,-1000.000,-1000.000,-613.770,898.926,0
4.003,-481.445,-985.352,-582.031,-921.387,0
4.007,-954.590,541.016,-582.031,-310.059,0
4.011,888.672,803.711,-538.086,-1000.000,0
4.015,-670.410,-767.090,-554.199,182.129,0
4.019,-966.797,-1000.000,-584.473,-757.812,0
4.023,562.500,-72.266,-549.316,188.477,0
4.027,-808.594,-848.633,-556.641,-1000.000,0
4.031,9.766,-77.637,-618.164,-266.602,0
4.035,-1000.000,-1000.000,-630.371,-799.805,0
4.039,-143.066,-226.074,-544.922,232.910,0
4.042,-780.762,-830.078,-501.953,-1000.000,0
4.046,216.797,245.605,-628.418,-350.098,0
4.050,-1000.000,-1000.000,-639.648,-873.535,0
4.054,-274.902,-605.469,-561.523,690.430,0
4.058,-816.895,-957.520,-543.945,-932.617,0
4.062,528.809,414.551,-608.887,-815.430,0
4.066,-1000.000,-1000.000,-614.258,733.398,0
4.070,-579.590,-1000.000,-544.434,-846.680,0
4.074,975.098,328.125,-550.781,-151.367,0
4.078,997.070,935.547,-599.121,-1000.000,0
4.082,-454.102,-595.703,-626.465,74.707,0
4.085,-1000.000,-1000.000,-532.227,-757.324,0
4.089,290.527,-174.805,-500.000,196.289,0
4.093,-773.926,-851.074,-569.824,-1000.000,0
4.097,117.676,43.945,-592.773,-272.461,0
4.101,-1000.000,-1000.000,-527.344,-802.246,0
4.105,-257.324,-286.133,-502.441,343.750,0
4.109,-800.781,-841.309,-577.148,-1000.000,0
4.113,229.492,246.094,-595.215,-452.148,0
4.117,-1000.000,-1000.000,-578.613,-941.895,0
4.121,-271.973,-738.770,-556.152,844.238,0
4.125,-830.078,912.598,-571.289,-726.074,0
4.129,616.699,529.785,-598.145,-961.426,0
4.132,-1000.000,-985.352,-596.191,564.453,0
4.136,-671.875,-1000.000,-595.703,-807.129,0
4.140,895.508,159.180,-584.961,-39.062,0
4.144,-901.367,-961.914,-569.336,-1000.000,0
4.148,-250.977,-420.410,-585.449,-35.645,0
4.152,-1000.000,-1000.000,-602.539,-763.672,0
4.156,114.258,-208.496,-566.406,205.078,0
4.160,-761.230,-843.262,-525.391,-1000.000,0
4.164,193.848,165.039,-576.660,-274.414,0
4.168,-1000.000,-1000.000,-621.582,-808.594,0
4.172,-272.461,-390.137,-578.125,436.035,0
4.175,-799.316,-866.699,-549.316,-1000.000,0
4.179,333.496,247.070,-597.168,-554.199,0
4.183,-1000.000,-1000.000,-612.305,982.422,0
4.187,-378.418,-883.301,-578.613,970.703,0
4.191,-887.695,723.633,-499.023,-522.461,0
4.195,759.277,642.090,-532.227,-1000.000,0
4.199,-854.980,-926.758,-647.461,382.324,0
4.203,-839.355,-1000.000,-600.098,-776.855,0
4.207,725.098,28.809,-537.109,74.219,0
4.211,-850.098,-880.371,-585.449,-1000.000,0
4.215,-142.578,-229.492,-637.695,-150.391,0
4.218,-1000.000,-1000.000,-603.027,-775.879,0
4.222,-0.488,-216.797,-496.582,215.820,0
4.226,-768.066,-835.938,-513.672,-1000.000,0
4.230,203.613,231.934,-663.086,-274.414,0
4.234,-1000.000,-1000.000,-594.238,-819.824,0
4.238,-274.902,-512.695,-517.090,541.992,0
4.242,-806.641,-910.156,-573.242,-1000.000,0
4.246,434.082,306.641,-639.160,-639.160,0
4.250,-1000.000,-1000.000,-579.590,913.574,0
4.254,-480.957,-991.699,-510.742,-931.152,0
4.258,-954.102,534.180,-554.688,-320.801,0
4.262,888.672,792.480,-597.656,-1000.000,0
4.265,-668.457,-778.809,-597.656,187.500,0
4.269,-974.121,-1000.000,-573.730,-750.977,0
4.273,580.078,-64.941,-577.148,169.922,0
4.277,-863.281,-908.203,-576.172,-1000.000,0
4.281,-76.660,-166.016,-564.941,-178.223,0
4.285,-1000.000,-1000.000,-572.266,-806.641,0
4.289,-129.883,-225.586,-574.707,228.516,0
4.293,-780.762,-832.520,-570.801,-1000.000,0
4.297,215.332,245.605,-535.645,-279.297,0
4.301,-1000.000,-1000.000,-531.250,-835.938,0
4.305,-274.902,-604.980,-575.684,626.465,0
4.308,-816.895,-956.543,-550.781,-990.723,0
4.312,528.809,410.645,-558.594,-782.227,0
4.316,-1000.000,-1000.000,-607.422,767.090,0
4.320,-579.590,-1000.000,-600.098,-864.258,0
4.324,975.098,320.801,-555.664,-194.336,0
4.328,996.582,921.875,-497.070,-1000.000,0
4.332,-452.637,-615.234,-551.270,81.543,0
4.336,-1000.000,-1000.000,-610.352,-759.766,0
4.340,280.273,-178.223,-541.016,196.289,0
4.344,-771.973,-852.539,-517.090,-1000.000,0
4.348,134.277,43.945,-614.258,-271.973,0
4.351,-1000.000,-1000.000,-595.703,-800.293,0
4.355,-259.277,-285.156,-555.176,335.449,0
4.359,-799.805,-840.820,-591.309,-1000.000,0
4.363,229.004,247.070,-640.137,-422.363,0
4.367,-1000.000,-1000.000,-645.020,-905.273,0
4.371,-271.973,-724.121,-533.203,759.766,0
4.375,-830.078,928.711,-493.652,-832.520,0
4.379,616.699,525.391,-640.137,-929.688,0
4.383,-1000.000,-986.328,-635.742,589.355,0
4.387,-671.875,-1000.000,-569.336,-817.383,0
4.391,894.531,162.598,-584.961,-61.035,0
4.395,-899.414,-960.449,-595.703,-1000.000,0
4.398,-254.883,-418.457,-589.355,-33.203,0
4.402,-1000.000,-1000.000,-572.754,-765.137,0
4.406,141.113,-208.984,-577.148,205.566,0
4.410,-759.766,-842.773,-602.539,-1000.000,0
4.414,191.406,168.457,-602.539,-274.414,0
4.418,-1000.000,-1000.000,-497.559,-806.152,1
