timestamps,TP9,AF7,AF8,TP10,Marker0
1614034686.927,-1000.000,-1000.000,-535.645,872.559,1
1614034686.931,-253.906,-265.625,-527.832,300.293,69
1614034686.935,-771.973,-805.176,-604.004,-1000.000,69
1614034686.939,172.363,194.824,-648.926,-1000.000,69
1614034686.943,-1000.000,-1000.000,-542.480,152.344,69
1614034686.947,5.371,-418.945,-466.309,96.191,69
1614034686.951,-851.562,954.590,-635.742,-984.375,69
1614034686.955,611.328,586.426,-659.668,-1000.000,69
1614034686.959,-1000.000,-963.379,-483.887,-99.609,69
1614034686.962,-669.922,-1000.000,-532.715,930.664,69
1614034686.966,891.602,286.621,-626.953,-495.605,69
1614034686.970,-895.508,-895.996,-651.855,-1000.000,69
1614034686.974,-216.309,-296.387,-437.012,-210.938,69
1614034686.978,-1000.000,-1000.000,-540.527,-833.496,69
1614034686.982,83.496,-216.309,-544.922,234.375,69
1614034686.986,-761.719,-833.008,-612.305,-1000.000,69
1614034686.990,195.801,222.656,-563.477,-271.973,69
1614034686.994,-1000.000,-1000.000,-503.906,-823.730,69
1614034686.998,-271.973,-373.047,-429.199,615.234,69
1614034687.001,-801.270,-850.586,-603.027,-1000.000,69
1614034687.005,334.961,291.504,-702.637,-490.234,69
1614034687.009,-1000.000,-1000.000,-527.344,989.746,69
1614034687.013,-432.129,-852.051,-411.133,-900.391,69
1614034687.017,-888.184,767.090,-555.176,-314.941,69
1614034687.021,701.172,709.473,-717.285,-968.262,69
1614034687.025,-916.992,-874.023,-512.207,573.242,69
1614034687.029,-937.500,-1000.000,-387.695,-784.668,69
1614034687.033,564.941,15.625,-416.992,175.293,69
1614034687.037,-816.895,-841.797,-649.414,-1000.000,69
1614034687.040,-64.453,-122.070,-505.859,-165.039,69
1614034687.044,-1000.000,-1000.000,-429.199,-768.555,69
1614034687.048,-33.203,-224.121,-278.320,213.379,69
1614034687.052,-766.113,-828.613,-461.426,-1000.000,69
1614034687.056,205.078,244.629,-610.352,-274.414,69
1614034687.060,-1000.000,-1000.000,-483.398,-829.590,69
1614034687.064,-274.902,-498.535,-431.641,617.188,69
1614034687.068,-809.082,-901.855,-648.926,-1000.000,69
1614034687.072,435.547,400.391,-725.098,-686.523,69
1614034687.076,-1000.000,-1000.000,-504.883,932.617,69
1614034687.080,-543.457,-934.570,-480.957,994.141,69
1614034687.083,985.840,609.863,-630.371,-431.641,69
1614034687.087,973.145,894.531,-705.566,-1000.000,69
1614034687.091,-514.160,-637.207,-510.254,114.258,69
1614034687.095,-1000.000,-1000.000,-476.562,-767.090,69
1614034687.099,382.324,-93.262,-590.820,194.336,69
1614034687.103,-777.344,-833.008,-707.520,-1000.000,69
1614034687.107,73.730,12.695,-442.383,-271.973,69
1614034687.111,-1000.000,-1000.000,-447.754,-798.340,69
1614034687.115,-150.879,-234.863,-526.367,333.496,69
1614034687.119,-776.367,-824.219,-598.145,-1000.000,69
1614034687.122,215.332,243.652,-609.375,-378.418,69
1614034687.126,-1000.000,-1000.000,-548.340,-886.230,69
1614034687.130,-274.414,-615.234,-483.398,751.465,69
1614034687.134,-823.242,-970.703,-583.008,-829.590,69
1614034687.138,560.547,509.277,-667.969,-932.129,69
1614034687.142,-1000.000,-1000.000,-536.621,604.980,69
1614034687.146,-653.809,-1000.000,-479.492,-833.496,69
1614034687.150,893.066,294.922,-545.898,-141.602,69
1614034687.154,-895.996,-969.238,-658.203,-1000.000,69
1614034687.158,-261.230,-450.195,-562.988,-24.902,69
1614034687.161,-1000.000,-1000.000,-505.371,-770.508,69
1614034687.165,186.035,-195.801,-537.109,208.496,69
1614034687.169,-749.023,-831.543,-663.086,-1000.000,69
1614034687.173,169.434,124.512,-555.664,-254.883,69
1614034687.177,-1000.000,-1000.000,-516.602,-862.793,69
1614034687.181,-178.223,-221.680,-455.078,317.871,69
1614034687.185,-810.547,-850.098,-600.586,-1000.000,69
1614034687.189,232.910,249.023,-670.410,-524.414,69
1614034687.193,-1000.000,-1000.000,-522.461,-958.496,69
1614034687.197,-345.215,-732.910,-419.434,830.566,69
1614034687.201,-876.465,926.270,-582.520,-730.469,69
1614034687.204,706.543,613.770,-726.562,-1000.000,69
1614034687.208,-914.062,-936.035,-504.395,413.086,69
1614034687.212,-819.336,-1000.000,-426.758,-798.340,69
1614034687.216,733.887,112.305,-603.516,-28.809,69
1614034687.220,-847.168,-872.070,-712.891,-1000.000,69
1614034687.224,-151.855,-245.605,-516.602,-137.695,69
1614034687.228,-1000.000,-1000.000,-463.867,-783.691,69
1614034687.232,77.637,-217.285,-493.652,217.773,69
1614034687.236,-757.324,-833.496,-583.496,-1000.000,69
1614034687.240,195.312,226.562,-471.680,-274.414,69
1614034687.243,-1000.000,-1000.000,-461.914,-817.383,69
1614034687.247,-273.438,-434.570,-487.305,509.277,69
1614034687.251,-803.711,-875.000,-619.141,-1000.000,69
1614034687.255,371.094,299.805,-598.633,-653.809,69
1614034687.259,-1000.000,-1000.000,-441.406,926.270,69
1614034687.263,-460.449,-911.621,-485.840,-992.676,69
1614034687.267,-955.566,661.133,-595.703,-442.383,69
1614034687.271,888.672,773.438,-661.621,-1000.000,69
1614034687.275,-668.945,-799.316,-522.461,200.684,69
1614034687.279,-969.727,-1000.000,-493.652,-769.531,69
1614034687.282,564.941,-9.766,-568.848,86.914,69
1614034687.286,-806.641,-836.914,-672.852,-1000.000,69
1614034687.290,-39.551,-87.891,-547.852,-251.953,69
1614034687.294,-1000.000,-1000.000,-545.898,-805.176,69
1614034687.298,-35.645,-227.051,-508.301,232.910,69
1614034687.302,-764.160,-828.613,-495.605,-1000.000,69
1614034687.306,205.078,245.117,-543.945,-313.965,69
1614034687.310,-1000.000,-1000.000,-575.195,-841.309,69
1614034687.314,-276.367,-544.922,-485.352,593.750,69
1614034687.318,-815.430,-923.828,-613.770,-1000.000,69
1614034687.322,513.184,416.992,-704.590,-788.086,69
1614034687.325,-1000.000,-1000.000,-545.410,761.719,69
1614034687.329,-576.660,-1000.000,-438.477,-877.441,69
1614034687.333,972.168,448.730,-552.246,-252.441,69
1614034687.337,-995.605,948.730,-719.727,-1000.000,69
1614034687.341,-470.703,-580.078,-555.176,86.426,69
1614034687.345,-1000.000,-1000.000,-417.480,-763.184,69
1614034687.349,382.324,-112.305,-471.191,196.289,69
1614034687.353,-779.297,-828.613,-692.871,-1000.000,69
1614034687.357,78.125,55.176,-542.480,-268.555,69
1614034687.361,-1000.000,-1000.000,-427.246,-799.805,69
1614034687.364,-205.078,-241.211,-405.273,275.391,69
1614034687.368,-791.016,-822.754,-592.285,-1000.000,69
1614034687.372,223.145,242.188,-608.887,-369.141,69
1614034687.376,-1000.000,-1000.000,-446.777,-891.602,69
1614034687.380,-272.949,-652.832,-413.086,759.766,69
1614034687.384,-830.078,994.629,-642.578,-849.609,69
1614034687.388,616.699,537.598,-688.965,-858.887,69
1614034687.392,-1000.000,-985.352,-468.262,700.195,69
1614034687.396,-671.875,-1000.000,-446.289,-847.168,69
1614034687.400,893.555,243.652,-594.727,-140.625,69
1614034687.403,-895.996,-924.316,-678.711,-1000.000,69
1614034687.407,-261.719,-370.117,-481.445,-16.602,69
1614034687.411,-1000.000,-1000.000,-467.773,-769.531,69
1614034687.415,187.500,-197.754,-503.906,205.566,69
1614034687.419,-756.348,-832.031,-562.988,-1000.000,69
1614034687.423,187.500,187.988,-410.156,-274.414,69
1614034687.427,-1000.000,-1000.000,-490.723,-805.664,69
1614034687.431,-270.508,-332.520,-479.980,419.922,69
1614034687.435,-799.805,-841.309,-579.102,-1000.000,69
1614034687.439,300.293,243.164,-646.484,-478.516,69
1614034687.443,-1000.000,-1000.000,-521.973,-953.125,69
1614034687.446,-373.047,-799.805,-465.332,882.812,69
1614034687.450,-890.625,822.266,-558.594,-650.391,69
1614034687.454,761.230,662.109,-672.363,-1000.000,69
1614034687.458,-857.910,-903.320,-542.969,470.703,69
1614034687.462,-829.590,-1000.000,-455.078,-802.246,69
1614034687.466,736.816,91.309,-562.988,-28.809,69
1614034687.470,-848.633,-854.492,-721.191,-1000.000,69
1614034687.474,-148.926,-195.801,-560.547,-137.695,69
1614034687.478,-1000.000,-1000.000,-501.953,-783.203,69
1614034687.482,52.734,-221.191,-495.117,217.773,69
1614034687.485,-760.742,-830.078,-608.887,-1000.000,69
1614034687.489,198.242,243.652,-583.008,-274.414,69
1614034687.493,-1000.000,-1000.000,-497.559,-816.406,69
1614034687.497,-275.879,-445.312,-438.477,517.090,69
1614034687.501,-806.641,-875.977,-651.367,-1000.000,69
1614034687.505,434.082,327.148,-709.473,-614.258,69
1614034687.509,-1000.000,-1000.000,-457.520,951.660,69
1614034687.513,-480.957,-941.895,-405.273,-998.047,69
1614034687.517,-954.102,611.328,-616.699,-447.754,69
1614034687.521,888.672,817.871,-708.984,-1000.000,69
1614034687.525,-669.922,-747.559,-477.539,245.117,69
1614034687.528,-969.727,-1000.000,-441.895,-772.461,69
1614034687.532,565.918,-32.715,-609.863,85.938,69
1614034687.536,-811.523,-833.496,-730.469,-1000.000,69
1614034687.540,-32.227,-56.641,-463.867,-251.953,69
1614034687.544,-1000.000,-1000.000,-411.621,-803.223,69
1614034687.548,-104.492,-229.492,-511.230,230.469,69
1614034687.552,-777.344,-827.148,-613.770,-1000.000,69
1614034687.556,213.379,245.117,-522.461,-271.973,69
1614034687.560,-1000.000,-1000.000,-433.594,-829.590,69
1614034687.564,-274.902,-571.777,-489.746,615.723,69
1614034687.567,-816.406,-938.965,-623.047,-1000.000,69
1614034687.571,517.578,424.805,-663.086,-691.895,69
1614034687.575,-1000.000,-1000.000,-526.367,875.000,69
1614034687.579,-577.148,-1000.000,-499.512,-898.926,69
1614034687.583,972.656,368.164,-565.918,-247.559,69
1614034687.587,-997.559,965.820,-654.785,-1000.000,69
1614034687.591,-465.820,-555.664,-527.344,86.426,69
1614034687.595,-1000.000,-1000.000,-492.188,-763.184,69
1614034687.599,355.469,-152.832,-507.812,196.289,69
1614034687.603,-778.809,-837.402,-567.871,-1000.000,69
1614034687.606,104.492,73.730,-511.719,-271.973,69
1614034687.610,-1000.000,-1000.000,-490.234,-799.805,69
1614034687.614,-255.371,-270.508,-451.172,334.961,69
1614034687.618,-801.758,-832.031,-574.707,-1000.000,69
1614034687.622,229.492,244.141,-642.578,-405.762,69
1614034687.626,-1000.000,-1000.000,-527.832,-897.461,69
1614034687.630,-271.973,-698.730,-465.332,755.859,69
1614034687.634,-830.078,948.242,-630.371,-828.613,69
1614034687.638,616.699,560.547,-709.961,-944.824,69
1614034687.642,-1000.000,-991.211,-562.988,615.234,69
1614034687.646,-672.363,-1000.000,-424.805,-888.672,69
1614034687.649,895.508,276.367,-478.027,-229.980,69
1614034687.653,-902.344,-938.477,-703.613,-1000.000,69
1614034687.657,-249.023,-367.676,-570.801,-24.902,69
1614034687.661,-1000.000,-1000.000,-452.637,-772.949,69
1614034687.665,102.051,-212.402,-486.328,206.543,69
1614034687.669,-762.207,-837.402,-637.207,-1000.000,69
1614034687.673,194.824,193.359,-543.457,-274.414,69
1614034687.677,-1000.000,-1000.000,-514.648,-808.105,69
1614034687.681,-273.926,-374.512,-523.926,425.293,69
1614034687.685,-791.992,-856.445,-641.602,-1000.000,69
1614034687.688,314.941,251.953,-664.551,-541.016,69
1614034687.692,-1000.000,-1000.000,-534.668,-983.887,69
1614034687.696,-290.527,-833.984,-481.934,888.672,69
1614034687.700,-898.438,767.578,-622.559,-640.137,69
1614034687.704,756.348,683.594,-660.645,-1000.000,69
1614034687.708,-843.262,-883.789,-454.102,392.090,69
1614034687.712,-873.535,-1000.000,-509.277,-791.992,69
1614034687.716,680.664,45.410,-614.746,-14.160,69
1614034687.720,-844.238,-853.027,-681.152,-1000.000,69
1614034687.724,-140.625,-174.316,-553.711,-139.648,69
1614034687.727,-1000.000,-1000.000,-523.926,-782.715,69
1614034687.731,-12.207,-221.191,-506.348,217.285,69
1614034687.735,-769.043,-830.566,-570.801,-1000.000,69
1614034687.739,204.590,244.141,-560.059,-274.414,69
1614034687.743,-1000.000,-1000.000,-516.113,-818.848,69
1614034687.747,-274.902,-478.027,-462.891,528.809,69
1614034687.751,-806.641,-891.113,-582.031,-1000.000,69
1614034687.755,434.082,344.238,-668.457,-654.297,69
1614034687.759,-1000.000,-1000.000,-543.945,929.688,69
1614034687.763,-481.445,-976.074,-456.543,-993.652,69
1614034687.767,-953.125,555.176,-558.594,-442.383,69
1614034687.770,882.324,847.656,-688.477,-1000.000,69
1614034687.774,-653.320,-714.355,-541.992,200.684,69
1614034687.778,-1000.000,-1000.000,-458.496,-769.531,69
1614034687.782,472.656,-62.500,-526.367,86.914,69
1614034687.786,-794.434,-833.496,-657.715,-1000.000,69
1614034687.790,41.504,-29.785,-510.742,-251.953,69
1614034687.794,-1000.000,-1000.000,-461.914,-806.641,69
1614034687.798,-146.973,-230.957,-449.219,234.375,69
1614034687.802,-778.809,-826.172,-575.684,-1000.000,69
1614034687.806,216.309,244.629,-593.750,-337.402,69
1614034687.809,-1000.000,-1000.000,-475.098,-852.051,69
1614034687.813,-274.902,-582.031,-312.988,619.141,69
1614034687.817,-818.359,-945.312,-529.297,-1000.000,69
1614034687.821,528.809,453.613,-708.496,-802.246,69
1614034687.825,-1000.000,-1000.000,-519.531,752.930,69
1614034687.829,-627.930,-1000.000,-504.395,-875.488,69
1614034687.833,945.801,316.406,-612.305,-252.930,69
1614034687.837,-997.559,990.723,-682.129,-1000.000,69
1614034687.841,-445.801,-518.555,-501.465,86.426,69
1614034687.845,-1000.000,-1000.000,-466.309,-763.184,69
1614034687.848,219.727,-166.504,-541.504,196.289,69
1614034687.852,-765.625,-837.402,-635.742,-1000.000,69
1614034687.856,174.316,94.727,-536.133,-271.973,69
1614034687.860,-1000.000,-1000.000,-545.410,-801.758,69
1614034687.864,-265.137,-282.227,-522.949,336.914,69
1614034687.868,-796.875,-833.984,-592.285,-1000.000,69
1614034687.872,228.027,244.629,-617.188,-458.984,69
1614034687.876,-1000.000,-1000.000,-555.664,-920.410,69
1614034687.880,-271.973,-718.750,-494.629,763.672,69
1614034687.884,-830.078,928.223,-570.312,-830.566,69
1614034687.888,611.816,586.426,-659.180,-949.707,69
1614034687.891,-1000.000,-953.613,-538.574,570.312,69
1614034687.895,-744.629,-1000.000,-494.141,-821.289,69
1614034687.899,811.035,161.133,-567.383,-102.051,69
1614034687.903,-881.348,-901.855,-645.508,-1000.000,69
1614034687.907,-224.609,-317.871,-525.391,-28.809,69
1614034687.911,-1000.000,-1000.000,-530.762,-768.066,69
1614034687.915,83.984,-213.867,-437.988,206.055,69
1614034687.919,-762.207,-835.938,-477.539,-1000.000,69
1614034687.923,195.801,207.031,-573.730,-274.902,69
1614034687.927,-1000.000,-1000.000,-530.762,-808.105,69
1614034687.930,-271.973,-394.043,-440.430,435.547,69
1614034687.934,-800.293,-862.305,-587.402,-1000.000,69
1614034687.938,334.961,263.184,-676.758,-541.504,69
1614034687.942,-1000.000,-1000.000,-512.695,-982.910,69
1614034687.946,-413.574,-867.188,-434.570,889.648,69
1614034687.950,-901.855,726.562,-606.445,-638.672,69
1614034687.954,758.301,724.609,-710.449,-1000.000,69
1614034687.958,-837.402,-848.633,-494.141,386.230,69
1614034687.962,-913.086,-1000.000,-406.250,-785.156,69
1614034687.966,610.840,35.156,-568.359,42.969,69
1614034687.969,-821.777,-841.309,-719.238,-1000.000,69
1614034687.973,-64.453,-141.602,-501.953,-160.156,69
1614034687.977,-1000.000,-1000.000,-425.781,-781.738,69
1614034687.981,-33.203,-222.656,-494.141,218.262,69
1614034687.985,-766.113,-830.078,-599.121,-1000.000,69
1614034687.989,205.078,245.117,-534.180,-274.414,69
1614034687.993,-1000.000,-1000.000,-418.945,-818.848,69
1614034687.997,-274.902,-498.047,-468.262,528.809,69
1614034688.001,-808.594,-899.414,-650.391,-1000.000,69
1614034688.005,435.059,361.816,-684.570,-662.598,69
1614034688.009,-1000.000,-1000.000,-556.152,909.180,69
1614034688.012,-541.992,-1000.000,-519.531,-958.008,69
1614034688.016,-988.281,491.699,-607.422,-378.418,69
1614034688.020,902.832,874.023,-687.500,-1000.000,69
1614034688.024,-618.652,-680.176,-561.035,180.664,69
1614034688.028,-1000.000,-1000.000,-527.832,-760.742,69
1614034688.032,383.301,-103.516,-576.172,188.965,69
1614034688.036,-781.250,-841.797,-647.949,-1000.000,69
1614034688.040,64.453,-19.531,-561.035,-266.602,69
1614034688.044,-1000.000,-1000.000,-561.035,-800.293,69
1614034688.048,-149.414,-230.469,-511.719,234.375,69
1614034688.051,-777.344,-826.660,-522.461,-1000.000,69
1614034688.055,215.820,244.629,-594.238,-371.582,69
1614034688.059,-1000.000,-1000.000,-591.797,-862.305,69
1614034688.063,-274.902,-604.980,-459.473,618.164,69
1614034688.067,-818.848,-961.914,-549.805,-988.770,69
1614034688.071,528.809,482.422,-698.242,-876.465,69
1614034688.075,-1000.000,-1000.000,-551.758,661.133,69
1614034688.079,-644.043,-1000.000,-452.148,-897.461,69
1614034688.083,913.086,376.953,-471.191,-229.004,69
1614034688.087,-944.336,998.535,-642.578,-1000.000,69
1614034688.090,-348.145,-484.863,-576.172,-24.902,69
1614034688.094,-1000.000,-1000.000,-499.512,-772.949,69
1614034688.098,189.941,-190.430,-536.133,206.543,69
1614034688.102,-759.277,-842.285,-620.605,-1000.000,69
1614034688.106,187.988,106.445,-544.434,-270.508,69
1614034688.110,-1000.000,-1000.000,-535.156,-804.199,69
1614034688.114,-266.602,-294.922,-494.141,338.379,69
1614034688.118,-795.410,-837.402,-563.477,-1000.000,69
1614034688.122,229.004,246.582,-618.652,-499.023,69
1614034688.126,-1000.000,-1000.000,-493.652,-966.309,69
1614034688.130,-256.348,-723.145,-475.098,853.516,69
1614034688.133,-878.906,844.727,-627.930,-688.477,69
1614034688.137,589.355,516.113,-667.969,-1000.000,69
1614034688.141,-947.266,-932.129,-510.742,422.363,69
1614034688.145,-812.500,-1000.000,-494.141,-797.852,69
1614034688.149,730.469,128.418,-597.656,-28.809,69
1614034688.153,-847.168,-885.742,-643.066,-1000.000,69
1614034688.157,-150.391,-280.273,-506.348,-139.648,69
1614034688.161,-1000.000,-1000.000,-519.043,-776.367,69
1614034688.165,96.191,-196.289,-503.418,199.219,69
1614034688.169,-813.965,-891.113,-520.508,-1000.000,69
1614034688.172,107.422,128.418,-461.426,-185.547,69
1614034688.176,-1000.000,-1000.000,-543.457,-826.172,69
1614034688.180,-272.461,-413.086,-526.367,488.770,69
1614034688.184,-804.199,-869.629,-585.938,-1000.000,69
1614034688.188,335.938,279.785,-657.715,-635.742,69
1614034688.192,-1000.000,-1000.000,-570.312,936.523,69
1614034688.196,-433.105,-900.879,-495.117,996.094,69
1614034688.200,-932.617,681.152,-583.496,-454.590,69
1614034688.204,833.008,744.629,-692.871,-1000.000,69
1614034688.208,-734.863,-830.566,-568.359,200.684,69
1614034688.211,-960.449,-1000.000,-527.344,-770.020,69
1614034688.215,563.965,3.906,-500.000,86.914,69
1614034688.219,-808.105,-844.238,-581.055,-1000.000,69
1614034688.223,-39.551,-128.418,-590.820,-251.953,69
1614034688.227,-1000.000,-1000.000,-551.270,-802.734,69
1614034688.231,-35.645,-223.145,-500.000,230.469,69
1614034688.235,-764.160,-830.078,-582.031,-1000.000,69
1614034688.239,205.078,245.117,-603.027,-272.461,69
1614034688.243,-1000.000,-1000.000,-544.922,-824.707,69
1614034688.247,-274.902,-522.949,-488.770,570.801,69
1614034688.251,-810.059,-911.621,-614.258,-1000.000,69
1614034688.254,442.383,383.301,-687.988,-751.953,69
1614034688.258,-1000.000,-1000.000,-508.789,796.387,69
1614034688.262,-546.387,-1000.000,-427.734,-883.789,69
1614034688.266,974.609,457.031,-594.727,-250.488,69
1614034688.270,-998.047,896.484,-677.734,-1000.000,69
1614034688.274,-471.191,-652.344,-502.441,86.426,69
1614034688.278,-1000.000,-1000.000,-463.867,-763.184,69
1614034688.282,382.324,-122.070,-568.848,196.289,69
1614034688.286,-775.879,-841.309,-632.324,-1000.000,69
1614034688.290,73.730,8.301,-540.527,-268.555,69
1614034688.293,-1000.000,-1000.000,-539.062,-800.781,69
1614034688.297,-150.879,-233.887,-526.855,278.320,69
1614034688.301,-776.367,-825.195,-575.684,-1000.000,69
1614034688.305,215.332,242.676,-569.336,-398.438,69
1614034688.309,-1000.000,-1000.000,-532.227,-903.320,69
1614034688.313,-274.414,-653.320,-485.840,758.301,69
1614034688.317,-823.730,997.070,-554.688,-832.031,69
1614034688.321,562.500,498.047,-653.809,-931.152,69
1614034688.325,-1000.000,-1000.000,-550.293,604.980,69
1614034688.329,-660.645,-1000.000,-502.930,-833.496,69
1614034688.332,889.160,256.348,-563.477,-141.113,69
1614034688.336,-895.020,-976.562,-563.965,-1000.000,69
1614034688.340,-261.719,-461.426,-506.836,-24.414,69
1614034688.344,-1000.000,-1000.000,-562.988,-770.508,69
1614034688.348,187.500,-195.801,-526.855,206.543,69
1614034688.352,-756.348,-840.332,-553.223,-1000.000,69
1614034688.356,187.988,141.113,-552.734,-273.926,69
1614034688.360,-1000.000,-1000.000,-549.805,-806.641,69
1614034688.364,-266.602,-322.266,-486.328,418.457,69
1614034688.368,-800.293,-843.262,-577.148,-1000.000,69
1614034688.372,233.398,244.141,-628.906,-513.672,69
1614034688.375,-1000.000,-1000.000,-562.500,-971.191,69
1614034688.379,-351.562,-796.875,-458.496,885.742,69
1614034688.383,-884.277,833.984,-520.508,-642.090,69
1614034688.387,729.004,627.441,-695.312,-1000.000,69
1614034688.391,-917.480,-956.055,-583.496,441.406,69
1614034688.395,-765.625,-1000.000,-507.324,-853.027,69
1614034688.399,822.754,186.035,-579.590,-116.699,69
1614034688.403,-857.910,-890.625,-669.922,-1000.000,69
1614034688.407,-151.855,-258.789,-566.895,-138.184,69
1614034688.411,-1000.000,-1000.000,-528.809,-785.645,69
1614034688.414,77.637,-216.797,-546.875,217.773,69
1614034688.418,-757.812,-833.984,-608.398,-1000.000,69
1614034688.422,195.312,229.492,-551.758,-274.414,69
1614034688.426,-1000.000,-1000.000,-528.809,-816.895,69
1614034688.430,-276.367,-439.941,-524.902,527.344,69
1614034688.434,-798.340,-876.465,-626.953,-1000.000,69
1614034688.438,376.465,294.434,-628.906,-601.074,69
1614034688.442,-1000.000,-1000.000,-498.047,960.938,69
1614034688.446,-386.230,-944.336,-506.836,-994.141,69
1614034688.450,-968.262,617.676,-593.262,-464.355,69
1614034688.453,890.137,763.184,-645.996,-1000.000,69
1614034688.457,-667.480,-814.941,-538.086,339.355,69
1614034688.461,-969.238,-1000.000,-521.973,-776.855,69
1614034688.465,564.941,-24.414,-585.449,80.566,69
1614034688.469,-807.129,-842.285,-594.238,-1000.000,69
1614034688.473,-39.062,-97.168,-483.887,-216.797,69
1614034688.477,-1000.000,-1000.000,-561.523,-793.457,69
1614034688.481,-41.504,-225.586,-532.715,225.098,69
1614034688.485,-765.625,-829.590,-542.480,-1000.000,69
1614034688.489,205.566,245.605,-565.918,-272.461,69
1614034688.493,-1000.000,-1000.000,-541.504,-829.590,69
1614034688.496,-276.367,-557.129,-503.906,617.188,69
1614034688.500,-815.430,-929.688,-541.992,-1000.000,69
1614034688.504,506.836,404.297,-588.379,-671.875,69
1614034688.508,-1000.000,-1000.000,-581.055,895.020,69
1614034688.512,-575.195,-1000.000,-507.324,-898.438,69
1614034688.516,971.191,390.137,-555.176,-254.883,69
1614034688.520,-995.117,914.062,-678.711,-1000.000,69
1614034688.524,-470.703,-630.859,-583.008,145.020,69
1614034688.528,-1000.000,-1000.000,-498.535,-759.277,69
1614034688.532,382.324,-147.949,-524.902,191.406,69
1614034688.535,-777.344,-843.262,-616.699,-1000.000,69
1614034688.539,76.172,40.039,-542.480,-270.020,69
1614034688.543,-1000.000,-1000.000,-495.605,-799.316,69
1614034688.547,-172.852,-253.418,-440.918,300.293,69
1614034688.551,-782.227,-829.590,-561.523,-1000.000,69
1614034688.555,218.750,242.676,-626.953,-373.047,69
1614034688.559,-1000.000,-1000.000,-516.113,-890.137,69
1614034688.563,-273.926,-701.172,-446.777,761.719,69
1614034688.567,-827.637,951.660,-643.555,-857.422,69
1614034688.571,596.680,519.043,-685.547,-829.590,69
1614034688.574,-1000.000,-995.117,-555.176,738.281,69
1614034688.578,-667.969,-1000.000,-545.410,-852.539,69
1614034688.582,892.090,208.984,-602.539,-140.137,69
1614034688.586,-895.508,-950.684,-661.133,-1000.000,69
1614034688.590,-261.719,-412.109,-523.438,-15.625,69
1614034688.594,-1000.000,-1000.000,-515.137,-769.531,69
1614034688.598,187.500,-205.078,-567.871,205.566,69
1614034688.602,-756.348,-839.355,-591.309,-1000.000,69
1614034688.606,187.500,167.480,-551.758,-273.438,69
1614034688.610,-1000.000,-1000.000,-545.410,-805.176,69
1614034688.614,-271.484,-350.098,-539.551,408.691,69
1614034688.617,-799.316,-852.539,-584.961,-1000.000,69
1614034688.621,314.941,250.977,-578.613,-483.398,69
1614034688.625,-1000.000,-1000.000,-575.684,-935.547,69
1614034688.629,-375.488,-781.738,-541.016,826.660,69
1614034688.633,-889.648,868.652,-574.219,-738.770,69
1614034688.637,760.742,628.906,-651.367,-1000.000,69
1614034688.641,-857.422,-926.270,-561.035,470.703,69
1614034688.645,-829.590,-1000.000,-539.062,-803.223,69
1614034688.649,736.816,65.918,-532.227,-24.414,69
1614034688.653,-849.609,-873.047,-561.035,-1000.000,69
1614034688.656,-146.973,-230.469,-572.266,-126.465,69
1614034688.660,-1000.000,-1000.000,-567.383,-780.762,69
1614034688.664,37.109,-217.773,-467.773,216.309,69
1614034688.668,-762.695,-833.984,-487.305,-1000.000,69
1614034688.672,199.707,234.863,-586.426,-274.414,69
1614034688.676,-1000.000,-1000.000,-549.316,-816.895,69
1614034688.680,-275.391,-469.727,-496.094,529.297,69
1614034688.684,-806.641,-889.160,-595.703,-1000.000,69
1614034688.688,434.082,310.059,-657.227,-601.562,69
1614034688.692,-1000.000,-1000.000,-547.852,962.402,69
1614034688.695,-480.957,-955.566,-469.238,998.535,69
1614034688.699,-954.102,594.727,-588.379,-446.289,69
1614034688.703,888.672,790.527,-673.340,-1000.000,69
1614034688.707,-669.922,-780.273,-534.668,245.605,69
1614034688.711,-969.238,-1000.000,-495.117,-772.461,69
1614034688.715,565.918,-55.664,-559.082,86.426,69
1614034688.719,-810.059,-843.262,-615.234,-1000.000,69
1614034688.723,-33.691,-73.730,-504.395,-251.953,69
1614034688.727,-1000.000,-1000.000,-464.844,-802.734,69
1614034688.731,-89.844,-227.051,-518.555,230.469,69
1614034688.735,-774.414,-828.613,-568.359,-1000.000,69
1614034688.738,211.914,245.605,-512.695,-271.973,69
1614034688.742,-1000.000,-1000.000,-495.117,-829.590,69
1614034688.746,-275.879,-574.707,-544.434,611.816,69
1614034688.750,-817.383,-940.430,-592.285,-1000.000,69
1614034688.754,528.809,423.340,-636.230,-753.906,69
1614034688.758,-1000.000,-1000.000,-576.172,806.641,69
1614034688.762,-579.590,-1000.000,-527.344,-885.254,69
1614034688.766,975.098,377.930,-596.191,-251.953,69
1614034688.770,997.559,934.082,-594.727,-1000.000,69
1614034688.774,-454.590,-598.145,-478.516,98.145,69
1614034688.777,-1000.000,-1000.000,-551.270,-762.207,69
1614034688.781,296.387,-172.852,-552.246,195.312,69
1614034688.785,-774.414,-847.168,-574.707,-1000.000,69
1614034688.789,91.797,55.664,-578.125,-271.484,69
1614034688.793,-1000.000,-1000.000,-581.543,-799.316,69
1614034688.797,-229.492,-268.555,-522.949,321.777,69
1614034688.801,-796.387,-833.496,-535.156,-1000.000,69
1614034688.805,226.562,244.629,-617.188,-385.742,69
1614034688.809,-1000.000,-1000.000,-596.680,-891.113,69
1614034688.813,-272.461,-706.055,-517.090,755.859,69
1614034688.816,-830.078,945.312,-574.219,-838.379,69
1614034688.820,616.699,533.203,-655.273,-903.320,69
1614034688.824,-1000.000,-981.934,-583.984,640.625,69
1614034688.828,-671.875,-1000.000,-481.445,-836.914,69
1614034688.832,895.020,175.293,-511.719,-130.859,69
1614034688.836,-899.902,-943.359,-658.691,-1000.000,69
1614034688.840,-254.395,-393.555,-548.340,-25.879,69
1614034688.844,-1000.000,-1000.000,-515.137,-770.020,69
1614034688.848,137.695,-210.449,-547.363,206.543,69
1614034688.852,-759.766,-839.844,-581.543,-1000.000,69
1614034688.856,191.895,180.664,-563.477,-274.902,69
1614034688.859,-1000.000,-1000.000,-481.934,-806.152,69
1614034688.863,-272.461,-374.023,-440.918,434.082,69
1614034688.867,-798.828,-858.887,-575.684,-1000.000,69
1614034688.871,333.496,246.582,-600.586,-482.422,69
1614034688.875,-1000.000,-1000.000,-553.223,-952.148,69
1614034688.879,-378.418,-852.051,-528.320,879.883,69
1614034688.883,-888.184,759.766,-607.422,-643.555,69
1614034688.887,759.766,663.574,-636.719,-1000.000,69
1614034688.891,-855.957,-903.809,-516.113,431.152,69
1614034688.895,-836.914,-1000.000,-525.391,-794.434,69
1614034688.898,728.516,41.016,-584.961,0.488,69
1614034688.902,-851.074,-867.188,-595.703,-1000.000,69
1614034688.906,-141.602,-205.078,-517.578,-141.602,69
1614034688.910,-1000.000,-1000.000,-553.223,-781.250,69
1614034688.914,-7.812,-219.238,-522.461,217.285,69
1614034688.918,-769.043,-833.496,-516.113,-1000.000,69
1614034688.922,204.590,238.770,-447.754,-274.414,69
1614034688.926,-1000.000,-1000.000,-511.719,-817.871,69
1614034688.930,-274.902,-490.723,-551.270,529.297,69
1614034688.934,-806.641,-898.438,-588.867,-1000.000,69
1614034688.937,434.082,318.848,-655.273,-621.094,69
1614034688.941,-1000.000,-1000.000,-600.586,950.684,69
1614034688.945,-481.445,-976.074,-543.457,999.512,69
1614034688.949,-951.660,557.617,-576.172,-440.430,69
1614034688.953,879.883,813.965,-653.320,-1000.000,69
1614034688.957,-645.020,-750.000,-559.082,196.777,69
1614034688.961,-1000.000,-1000.000,-520.996,-764.648,69
1614034688.965,442.383,-94.727,-524.414,159.180,69
1614034688.969,-799.316,-849.609,-589.355,-1000.000,69
1614034688.973,-25.391,-58.594,-587.402,-262.207,69
1614034688.977,-1000.000,-1000.000,-557.617,-797.363,69
1614034688.980,-138.672,-227.051,-490.234,228.516,69
1614034688.984,-783.691,-829.102,-563.965,-1000.000,69
1614034688.988,217.773,245.117,-623.047,-272.461,69
1614034688.992,-1000.000,-1000.000,-550.781,-829.590,69
1614034688.996,-274.902,-596.191,-508.301,608.398,69
1614034689.000,-816.895,-952.637,-617.188,-1000.000,69
1614034689.004,528.809,437.500,-668.457,-806.152,69
1614034689.008,-1000.000,-1000.000,-515.137,739.258,69
1614034689.012,-579.590,-1000.000,-452.148,-861.328,69
1614034689.016,975.586,317.871,-562.012,-203.125,69
1614034689.019,995.605,963.379,-639.160,-1000.000,69
1614034689.023,-449.707,-555.664,-516.602,82.031,69
1614034689.027,-1000.000,-1000.000,-425.781,-760.254,69
1614034689.031,267.578,-175.293,-512.207,195.801,69
1614034689.035,-771.973,-846.191,-602.051,-1000.000,69
1614034689.039,123.535,64.941,-565.430,-271.973,69
1614034689.043,-1000.000,-1000.000,-571.289,-802.734,69
1614034689.047,-257.812,-285.645,-544.922,337.891,69
1614034689.051,-800.293,-838.867,-570.801,-1000.000,69
1614034689.055,229.004,246.582,-578.125,-475.098,69
1614034689.058,-1000.000,-1000.000,-557.617,-927.246,69
1614034689.062,-271.973,-715.332,-535.156,766.602,69
1614034689.066,-830.078,933.594,-576.172,-832.520,69
1614034689.070,616.699,563.477,-611.328,-947.266,69
1614034689.074,-1000.000,-966.309,-557.129,566.895,69
1614034689.078,-670.898,-1000.000,-559.570,-817.871,69
1614034689.082,893.555,167.969,-561.523,-68.848,69
1614034689.086,-898.438,-923.828,-591.309,-1000.000,69
1614034689.090,-239.258,-357.422,-565.430,-64.941,69
1614034689.094,-1000.000,-1000.000,-568.848,-771.973,69
1614034689.098,112.793,-212.402,-523.438,209.473,69
1614034689.101,-760.742,-838.379,-516.113,-1000.000,69
1614034689.105,193.848,192.871,-559.570,-273.926,69
1614034689.109,-1000.000,-1000.000,-575.195,-809.570,69
1614034689.113,-272.461,-389.160,-477.539,436.035,69
1614034689.117,-798.828,-863.281,-494.141,-1000.000,69
1614034689.121,333.496,249.023,-642.578,-570.312,69
1614034689.125,-1000.000,-1000.000,-607.422,991.699,69
1614034689.129,-378.418,-857.910,-512.207,923.828,69
1614034689.133,-887.695,744.629,-575.195,-591.797,69
1614034689.137,758.301,687.500,-677.246,-1000.000,69
1614034689.140,-852.539,-882.812,-592.285,362.793,69
1614034689.144,-848.633,-1000.000,-516.113,-783.203,69
1614034689.148,698.730,37.109,-549.805,68.848,69
1614034689.152,-835.449,-854.492,-624.512,-1000.000,69
1614034689.156,-73.242,-172.363,-588.379,-223.145,69
1614034689.160,-1000.000,-1000.000,-503.418,-796.387,69
1614034689.164,-20.508,-221.191,-492.676,226.562,69
1614034689.168,-765.137,-831.543,-577.637,-1000.000,69
1614034689.172,204.102,245.117,-552.246,-272.461,69
1614034689.176,-1000.000,-1000.000,-552.246,-818.848,69
1614034689.180,-274.902,-496.094,-534.668,530.762,69
1614034689.183,-806.641,-899.414,-610.840,-1000.000,69
1614034689.187,434.082,333.984,-620.117,-656.250,69
1614034689.191,-1000.000,-1000.000,-515.137,893.066,69
1614034689.195,-480.957,-997.070,-500.488,-910.156,69
1614034689.199,-952.637,519.043,-567.383,-291.992,69
1614034689.203,882.812,843.262,-604.004,-1000.000,69
1614034689.207,-654.297,-720.215,-529.297,188.477,69
1614034689.211,-1000.000,-1000.000,-542.969,-756.836,69
1614034689.215,473.145,-83.984,-541.016,188.477,69
1614034689.219,-791.016,-839.355,-579.590,-1000.000,69
1614034689.222,73.242,-31.250,-557.617,-266.113,69
1614034689.226,-1000.000,-1000.000,-552.734,-800.293,69
1614034689.230,-150.879,-230.469,-511.719,233.887,69
1614034689.234,-776.855,-827.148,-484.375,-1000.000,69
1614034689.238,215.332,245.117,-524.414,-368.164,69
1614034689.242,-1000.000,-1000.000,-541.016,-875.488,69
1614034689.246,-274.414,-593.750,-486.816,676.270,69
1614034689.250,-816.895,-952.148,-530.762,-952.637,69
1614034689.254,528.809,453.613,-623.047,-812.012,69
1614034689.258,-1000.000,-1000.000,-583.496,733.398,69
1614034689.261,-578.613,-1000.000,-514.648,-848.633,69
1614034689.265,970.703,324.219,-489.258,-156.738,69
1614034689.269,-992.676,983.887,-564.941,-1000.000,69
1614034689.273,-410.156,-525.391,-596.680,72.754,69
1614034689.277,-1000.000,-1000.000,-530.762,-757.812,69
1614034689.281,205.078,-179.199,-526.367,196.289,69
1614034689.285,-762.695,-841.797,-605.957,-1000.000,69
1614034689.289,180.664,90.332,-560.547,-271.973,69
1614034689.293,-1000.000,-1000.000,-506.836,-801.270,69
1614034689.297,-265.625,-283.691,-448.730,336.426,69
1614034689.301,-796.387,-834.961,-584.473,-1000.000,69
1614034689.304,227.539,245.117,-646.973,-439.941,69
1614034689.308,-1000.000,-1000.000,-519.531,-934.082,69
1614034689.312,-271.973,-722.656,-432.617,831.055,69
1614034689.316,-830.078,926.270,-617.676,-740.234,69
1614034689.320,610.840,568.359,-690.430,-959.473,69
1614034689.324,-1000.000,-962.891,-557.129,563.965,69
1614034689.328,-755.859,-1000.000,-542.969,-807.617,69
1614034689.332,791.016,148.438,-601.074,-39.551,69
1614034689.336,-869.141,-903.809,-654.785,-1000.000,69
1614034689.340,-193.359,-319.336,-523.438,-35.156,69
1614034689.343,-1000.000,-1000.000,-521.973,-763.672,69
1614034689.347,89.844,-213.379,-567.871,205.078,69
1614034689.351,-759.277,-836.426,-571.289,-1000.000,69
1614034689.355,194.824,203.613,-560.547,-274.414,69
1614034689.359,-1000.000,-1000.000,-584.473,-809.570,69
1614034689.363,-271.973,-389.160,-532.227,436.035,69
1614034689.367,-799.805,-860.352,-547.852,-1000.000,69
1614034689.371,334.473,257.324,-584.961,-566.895,69
1614034689.375,-1000.000,-1000.000,-579.102,981.445,69
1614034689.379,-401.367,-884.766,-545.898,957.520,69
1614034689.382,-896.484,651.367,-538.086,-546.875,69
1614034689.386,756.836,635.254,-581.055,-1000.000,69
1614034689.390,-838.867,-868.164,-545.898,382.812,69
1614034689.394,-904.785,-1000.000,-541.992,-779.785,69
1614034689.398,621.582,18.555,-517.578,77.148,69
1614034689.402,-822.266,-853.027,-567.871,-1000.000,69
1614034689.406,-59.082,-161.133,-593.262,-188.477,69
1614034689.410,-1000.000,-1000.000,-571.289,-786.133,69
1614034689.414,-33.691,-221.680,-490.234,221.191,69
1614034689.418,-765.625,-831.543,-521.973,-1000.000,69
1614034689.422,205.078,245.117,-592.773,-273.438,69
1614034689.425,-1000.000,-1000.000,-586.914,-820.801,69
1614034689.429,-274.902,-508.301,-472.168,544.922,69
1614034689.433,-808.105,-904.297,-524.414,-1000.000,69
1614034689.437,435.059,340.820,-683.105,-659.668,69
1614034689.441,-1000.000,-1000.000,-587.402,895.508,69
1614034689.445,-526.367,-1000.000,-520.996,-915.039,69
1614034689.449,-974.609,475.586,-590.332,-300.293,69
1614034689.453,885.254,841.797,-663.086,-1000.000,69
1614034689.457,-640.137,-721.191,-556.152,188.965,69
1614034689.461,-1000.000,-1000.000,-510.742,-756.836,69
1614034689.464,380.371,-114.258,-563.477,192.383,69
1614034689.468,-773.926,-838.379,-621.582,-1000.000,69
1614034689.472,55.176,-41.016,-543.457,-229.492,69
1614034689.476,-1000.000,-1000.000,-507.812,-905.273,69
1614034689.480,-62.500,-142.090,-504.883,52.734,69
1614034689.484,-787.109,-837.402,-562.988,-1000.000,69
1614034689.488,215.820,245.117,-555.664,-365.723,69
1614034689.492,-1000.000,-1000.000,-502.930,-881.836,69
1614034689.496,-274.902,-606.445,-535.645,680.176,69
1614034689.500,-819.336,-959.961,-623.047,-948.242,69
1614034689.503,528.809,452.637,-616.211,-812.500,69
1614034689.507,-1000.000,-1000.000,-513.184,730.957,69
1614034689.511,-663.086,-1000.000,-555.176,-839.844,69
1614034689.515,933.105,269.043,-596.191,-169.922,69
1614034689.519,980.957,986.328,-633.301,-1000.000,69
1614034689.523,-473.145,-517.578,-555.176,162.109,69
1614034689.527,-1000.000,-1000.000,-555.664,-753.418,69
1614034689.531,208.984,-167.480,-556.641,159.180,69
1614034689.535,-819.336,-897.461,-559.082,-1000.000,69
1614034689.539,99.609,20.996,-556.152,-90.820,69
1614034689.543,-1000.000,-1000.000,-574.707,-820.312,69
1614034689.546,-267.090,-294.922,-515.625,335.449,69
1614034689.550,-797.852,-838.867,-549.805,-1000.000,69
1614034689.554,229.492,243.164,-629.883,-455.566,69
1614034689.558,-1000.000,-1000.000,-596.191,-942.871,69
1614034689.562,-253.418,-767.090,-510.742,842.773,69
1614034689.566,-885.254,875.488,-559.082,-730.469,69
1614034689.570,519.043,581.055,-647.949,-960.449,69
1614034689.574,-987.793,-957.520,-580.566,564.453,69
1614034689.578,-785.156,-1000.000,-498.047,-807.617,69
1614034689.582,740.234,116.699,-469.238,-35.156,69
1614034689.585,-842.773,-893.555,-620.605,-1000.000,69
1614034689.589,-215.332,-355.957,-593.750,1.465,69
1614034689.593,-1000.000,-1000.000,-545.898,-868.652,69
1614034689.597,261.230,-32.715,-541.504,23.926,69
1614034689.601,-777.344,-854.980,-574.219,-1000.000,69
1614034689.605,193.848,208.496,-580.078,-272.949,69
1614034689.609,-1000.000,-1000.000,-543.945,-814.453,69
1614034689.613,-271.973,-413.086,-523.438,436.035,69
1614034689.617,-799.805,-868.652,-590.332,-1000.000,69
1614034689.621,334.473,265.137,-624.023,-554.199,69
1614034689.624,-1000.000,-1000.000,-547.363,988.770,69
1614034689.628,-395.508,-909.180,-533.691,953.125,69
1614034689.632,-915.527,670.410,-611.816,-548.340,69
1614034689.636,823.242,722.168,-650.879,-1000.000,69
1614034689.640,-735.840,-852.539,-556.641,382.324,69
1614034689.644,-960.938,-1000.000,-550.293,-772.461,69
1614034689.648,563.477,-2.930,-596.680,42.480,69
1614034689.652,-808.105,-848.145,-597.656,-1000.000,69
1614034689.656,-39.551,-138.672,-519.043,-60.547,69
1614034689.660,-1000.000,-1000.000,-548.828,-788.086,69
1614034689.664,-35.645,-222.168,-535.156,216.309,69
1614034689.667,-764.648,-831.055,-512.207,-1000.000,69
1614034689.671,204.590,245.605,-515.625,-274.414,69
1614034689.675,-1000.000,-1000.000,-555.176,-818.359,69
1614034689.679,-274.902,-521.973,-545.410,529.297,69
1614034689.683,-809.082,-911.133,-549.805,-1000.000,69
1614034689.687,435.547,367.676,-574.707,-650.391,69
1614034689.691,-1000.000,-1000.000,-584.961,913.086,69
1614034689.695,-544.434,-1000.000,-538.574,-950.684,69
1614034689.699,994.629,456.055,-517.578,-362.793,69
1614034689.703,946.777,869.629,-584.473,-1000.000,69
1614034689.706,-553.711,-686.523,-590.332,190.918,69
1614034689.710,-1000.000,-1000.000,-541.992,-760.254,69
1614034689.714,382.324,-117.676,-470.215,177.734,69
1614034689.718,-778.320,-844.727,-543.945,-1000.000,69
1614034689.722,73.730,-16.113,-602.539,-265.137,69
1614034689.726,-1000.000,-1000.000,-545.898,-798.340,69
1614034689.730,-150.879,-230.469,-507.812,231.445,69
1614034689.734,-776.367,-826.660,-588.867,-1000.000,69
1614034689.738,215.332,244.141,-621.094,-323.730,69
1614034689.742,-1000.000,-1000.000,-540.039,-846.680,69
1614034689.745,-274.414,-623.047,-489.746,616.699,69
1614034689.749,-822.266,-976.562,-613.770,-1000.000,69
1614034689.753,558.594,485.840,-672.852,-805.176,69
1614034689.757,-1000.000,-1000.000,-514.648,736.328,69
1614034689.761,-628.906,-1000.000,-448.242,-858.887,69
1614034689.765,908.691,279.785,-566.406,-194.824,69
1614034689.769,-901.367,-988.281,-669.922,-1000.000,69
1614034689.773,-259.277,-480.469,-520.508,81.543,69
1614034689.777,-1000.000,-1000.000,-468.750,-759.766,69
1614034689.781,187.500,-192.383,-562.988,195.801,69
1614034689.785,-756.348,-843.750,-618.164,-1000.000,69
1614034689.788,187.988,104.492,-502.930,-271.973,69
1614034689.792,-1000.000,-1000.000,-476.562,-800.293,69
1614034689.796,-266.602,-307.129,-551.270,335.449,69
1614034689.800,-796.875,-842.285,-591.309,-1000.000,69
1614034689.804,229.004,245.117,-590.820,-420.898,69
1614034689.808,-1000.000,-1000.000,-551.270,-912.598,69
1614034689.812,-294.922,-771.484,-541.504,784.668,69
1614034689.816,-855.469,867.676,-598.633,-792.969,69
1614034689.820,682.617,603.027,-628.906,-954.102,69
1614034689.824,-928.223,-946.289,-562.500,566.895,69
1614034689.827,-813.965,-1000.000,-547.363,-814.941,69
1614034689.831,736.816,120.117,-561.523,-72.266,69
1614034689.835,-847.656,-890.625,-615.234,-1000.000,69
1614034689.839,-151.367,-288.574,-568.359,-32.227,69
1614034689.843,-1000.000,-1000.000,-556.152,-765.625,69
1614034689.847,77.637,-214.355,-512.207,205.566,69
1614034689.851,-757.812,-835.938,-515.625,-1000.000,69
1614034689.855,195.312,213.867,-564.453,-274.414,69
1614034689.859,-1000.000,-1000.000,-566.895,-808.594,69
1614034689.863,-271.973,-423.828,-481.934,435.547,69
1614034689.866,-800.781,-873.047,-538.086,-1000.000,69
1614034689.870,335.449,279.785,-653.809,-541.504,69
1614034689.874,-1000.000,-1000.000,-577.148,-993.652,69
1614034689.878,-422.852,-910.156,-513.184,920.898,69
1614034689.882,-915.039,668.457,-600.586,-621.094,69
1614034689.886,800.781,736.816,-674.316,-1000.000,69
1614034689.890,-786.621,-836.426,-567.871,470.703,69
1614034689.894,-955.078,-1000.000,-476.562,-790.039,69
1614034689.898,564.453,-8.301,-442.871,74.219,69
1614034689.902,-809.570,-849.609,-576.660,-1000.000,69
1614034689.906,-39.551,-138.672,-590.332,-150.879,69
1614034689.909,-1000.000,-1000.000,-541.504,-775.879,69
1614034689.913,-35.645,-222.168,-562.012,215.820,69
1614034689.917,-764.160,-831.543,-600.586,-1000.000,69
1614034689.921,205.078,245.605,-580.078,-274.414,69
1614034689.925,-1000.000,-1000.000,-551.758,-818.359,69
1614034689.929,-276.855,-538.574,-536.621,529.297,69
1614034689.933,-802.734,-921.875,-613.281,-1000.000,69
1614034689.937,430.664,382.324,-626.953,-653.809,69
1614034689.941,-1000.000,-1000.000,-523.926,945.312,69
1614034689.945,-449.707,-985.352,-511.230,969.727,69
1614034689.948,969.238,529.297,-584.961,-493.164,69
1614034689.952,-999.023,868.652,-591.797,-1000.000,69
1614034689.956,-466.309,-670.898,-482.422,190.918,69
1614034689.960,-1000.000,-1000.000,-550.293,-763.184,69
1614034689.964,382.324,-137.695,-586.914,188.477,69
1614034689.968,-775.879,-850.586,-547.852,-1000.000,69
1614034689.972,73.730,-14.160,-507.324,-266.602,69
1614034689.976,-1000.000,-1000.000,-577.637,-795.410,69
1614034689.980,-150.879,-243.164,-549.316,228.516,69
1614034689.984,-776.367,-831.543,-558.105,-1000.000,69
1614034689.987,215.820,244.629,-588.379,-278.320,69
1614034689.991,-1000.000,-1000.000,-562.500,-839.355,69
1614034689.995,-274.414,-662.598,-532.227,642.090,69
1614034689.999,-823.730,988.281,-559.570,-994.629,69
1614034690.003,565.918,485.840,-640.625,-741.699,69
1614034690.007,-1000.000,-1000.000,-602.539,830.566,69
1614034690.011,-661.133,-1000.000,-531.250,-864.258,69
1614034690.015,889.648,243.164,-569.336,-164.551,69
1614034690.019,-895.020,-989.258,-654.785,-1000.000,69
1614034690.023,-261.719,-479.004,-596.680,79.102,69
1614034690.027,-1000.000,-1000.000,-536.133,-757.812,69
1614034690.030,186.035,-199.219,-532.227,197.754,69
1614034690.034,-749.023,-839.355,-598.633,-1000.000,69
1614034690.038,169.434,84.473,-573.730,-253.418,69
1614034690.042,-1000.000,-1000.000,-518.066,-857.422,69
1614034690.046,-178.223,-241.699,-487.305,247.559,69
1614034690.050,-809.082,-862.305,-589.355,-1000.000,69
1614034690.054,230.957,247.559,-653.320,-429.688,69
1614034690.058,-1000.000,-1000.000,-539.551,-921.875,69
1614034690.062,-317.871,-796.875,-472.656,798.340,69
1614034690.066,-867.188,836.426,-607.422,-778.809,69
1614034690.069,701.660,604.004,-662.109,-953.613,69
1614034690.073,-912.109,-945.312,-519.531,563.477,69
1614034690.077,-819.824,-1000.000,-482.910,-808.105,69
1614034690.081,733.887,95.215,-605.469,-39.551,69
1614034690.085,-847.168,-896.973,-619.629,-1000.000,69
1614034690.089,-151.855,-292.969,-548.828,-35.645,69
1614034690.093,-1000.000,-1000.000,-564.941,-764.160,69
1614034690.097,77.637,-213.867,-581.543,205.078,69
1614034690.101,-757.324,-836.914,-567.383,-1000.000,69
1614034690.105,195.801,215.820,-535.156,-274.414,69
1614034690.108,-1000.000,-1000.000,-573.242,-808.594,69
1614034690.112,-272.461,-443.848,-569.336,435.547,69
1614034690.116,-802.246,-883.789,-574.219,-1000.000,69
1614034690.120,340.332,287.598,-596.191,-547.363,69
1614034690.124,-1000.000,-1000.000,-577.637,-986.816,69
1614034690.128,-443.359,-870.605,-539.551,896.484,69
1614034690.132,-952.637,730.469,-537.598,-632.324,69
1614034690.136,887.695,733.887,-582.520,-1000.000,69
1614034690.140,-667.969,-831.055,-583.984,382.812,69
1614034690.144,-970.215,-1000.000,-554.688,-779.785,69
1614034690.148,564.941,-13.672,-547.852,73.730,69
1614034690.151,-806.641,-848.633,-590.820,-1000.000,69
1614034690.155,-39.551,-132.324,-580.078,-150.391,69
1614034690.159,-1000.000,-1000.000,-573.730,-776.367,69
1614034690.163,-35.645,-222.168,-491.211,215.820,69
1614034690.167,-764.160,-831.543,-488.770,-1000.000,69
1614034690.171,205.078,246.094,-592.285,-274.414,69
1614034690.175,-1000.000,-1000.000,-581.055,-823.242,69
1614034690.179,-274.902,-558.594,-466.309,566.895,69
1614034690.183,-810.059,-931.641,-483.398,-1000.000,69
1614034690.187,438.477,373.047,-639.648,-653.320,69
1614034690.190,-1000.000,-1000.000,-600.098,908.203,69
1614034690.194,-559.570,-1000.000,-515.137,-925.293,69
1614034690.198,970.703,431.641,-586.426,-314.453,69
1614034690.202,995.605,887.207,-657.227,-1000.000,69
1614034690.206,-486.328,-663.086,-561.035,189.453,69
1614034690.210,-1000.000,-1000.000,-532.227,-757.812,69
1614034690.214,381.836,-145.020,-563.477,187.988,69
1614034690.218,-776.367,-850.098,-601.074,-1000.000,69
1614034690.222,73.730,-2.441,-562.500,-266.602,69
1614034690.226,-1000.000,-1000.000,-526.367,-800.293,69
1614034690.229,-150.879,-240.234,-532.227,241.699,69
1614034690.233,-776.855,-829.590,-561.523,-1000.000,69
1614034690.237,215.332,243.652,-549.805,-365.723,69
1614034690.241,-1000.000,-1000.000,-452.148,-886.719,69
1614034690.245,-274.902,-666.504,-488.770,727.539,69
1614034690.249,-822.754,985.352,-605.469,-896.484,69
1614034690.253,556.152,483.887,-632.812,-822.266,69
1614034690.257,-1000.000,-1000.000,-587.402,737.305,69
1614034690.261,-659.180,-1000.000,-552.734,-854.004,69
1614034690.265,888.672,238.770,-572.754,-139.160,69
1614034690.269,-894.531,-985.840,-604.492,-1000.000,69
1614034690.272,-261.719,-474.609,-560.059,-24.414,69
1614034690.276,-1000.000,-1000.000,-552.246,-770.508,69
1614034690.280,187.500,-194.824,-529.785,206.543,69
1614034690.284,-756.348,-840.820,-549.316,-1000.000,69
1614034690.288,187.988,131.348,-572.754,-271.973,69
1614034690.292,-1000.000,-1000.000,-570.312,-804.688,69
1614034690.296,-266.602,-309.082,-502.441,376.465,69
1614034690.300,-798.828,-839.355,-492.188,-1000.000,69
1614034690.304,230.957,242.188,-581.055,-488.770,69
1614034690.308,-1000.000,-1000.000,-600.586,-966.309,69
1614034690.311,-327.148,-794.922,-501.953,886.719,69
1614034690.315,-859.375,839.844,-495.117,-650.879,69
1614034690.319,659.180,602.051,-612.305,-1000.000,69
1614034690.323,-959.961,-947.754,-582.520,466.309,69
1614034690.327,-810.547,-1000.000,-499.023,-801.758,69
1614034690.331,731.934,100.586,-516.602,-28.320,69
1614034690.335,-847.168,-887.695,-632.324,-1000.000,69
1614034690.339,-151.855,-277.344,-579.590,-137.695,69
1614034690.343,-1000.000,-1000.000,-533.203,-783.203,69
1614034690.347,77.637,-215.332,-522.949,217.773,69
1614034690.350,-757.324,-834.961,-564.453,-1000.000,69
1614034690.354,195.312,220.703,-576.172,-274.414,69
1614034690.358,-1000.000,-1000.000,-484.863,-817.383,69
1614034690.362,-271.973,-422.852,-422.363,529.297,69
1614034690.366,-802.246,-871.094,-552.734,-1000.000,69
1614034690.370,336.914,275.879,-625.977,-610.352,69
1614034690.374,-1000.000,-1000.000,-521.484,956.543,69
1614034690.378,-452.148,-932.617,-461.426,-999.023,69
1614034690.382,-941.895,637.207,-605.469,-448.730,69
1614034690.386,840.332,735.352,-644.043,-1000.000,69
1614034690.390,-731.934,-842.285,-567.383,252.930,69
1614034690.393,-960.449,-1000.000,-564.941,-772.461,69
1614034690.397,563.965,-11.230,-583.984,90.820,69
1614034690.401,-808.105,-847.656,-596.191,-1000.000,69
1614034690.405,-39.551,-130.859,-556.152,-252.930,69
1614034690.409,-1000.000,-1000.000,-562.500,-802.734,69
1614034690.413,-35.645,-222.656,-520.020,230.469,69
1614034690.417,-764.160,-831.543,-502.930,-1000.000,69
1614034690.421,204.590,245.605,-524.902,-271.973,69
1614034690.425,-1000.000,-1000.000,-577.148,-829.590,69
1614034690.429,-275.391,-543.457,-544.922,610.840,69
1614034690.432,-812.012,-922.852,-553.711,-1000.000,69
1614034690.436,459.961,377.930,-597.656,-770.508,69
1614034690.440,-1000.000,-1000.000,-599.121,789.062,69
1614034690.444,-568.359,-1000.000,-560.059,-881.836,69
1614034690.448,973.145,435.547,-502.441,-252.930,69
1614034690.452,987.305,880.859,-502.930,-1000.000,69
1614034690.456,-499.512,-670.898,-538.086,99.121,69
1614034690.460,-1000.000,-1000.000,-548.340,-762.207,69
1614034690.464,382.324,-139.160,-522.949,194.824,69
1614034690.468,-776.367,-847.656,-587.891,-1000.000,69
1614034690.471,74.219,0.488,-588.379,-271.973,69
1614034690.475,-1000.000,-1000.000,-573.730,-798.340,69
1614034690.479,-150.879,-237.305,-457.520,333.496,69
1614034690.483,-776.367,-827.637,-479.004,-1000.000,69
1614034690.487,215.820,243.164,-618.164,-378.418,69
1614034690.491,-1000.000,-1000.000,-564.453,-887.207,69
1614034690.495,-274.902,-666.504,-497.070,760.254,69
1614034690.499,-819.336,985.840,-582.031,-855.957,69
1614034690.503,530.273,483.887,-649.414,-835.938,69
1614034690.507,-1000.000,-1000.000,-527.832,730.469,69
1614034690.511,-653.809,-1000.000,-469.727,-851.562,69
1614034690.514,886.719,240.234,-553.711,-140.137,69
1614034690.518,-894.043,-984.863,-616.699,-1000.000,69
1614034690.522,-261.719,-473.145,-529.297,-16.113,69
1614034690.526,-1000.000,-1000.000,-482.422,-769.531,69
1614034690.530,187.500,-195.801,-548.340,205.566,69
1614034690.534,-756.348,-842.773,-571.777,-1000.000,69
1614034690.538,187.988,125.488,-560.547,-274.902,69
1614034690.542,-1000.000,-1000.000,-575.684,-806.152,69
1614034690.546,-266.602,-324.707,-561.035,434.082,69
1614034690.550,-798.828,-846.191,-581.055,-1000.000,69
1614034690.553,231.445,245.117,-578.613,-480.957,69
1614034690.557,-1000.000,-1000.000,-572.266,-952.637,69
1614034690.561,-323.730,-792.969,-559.570,884.766,69
1614034690.565,-869.629,841.309,-577.148,-656.250,69
1614034690.569,703.613,605.957,-613.770,-1000.000,69
1614034690.573,-911.621,-943.848,-601.562,497.559,69
1614034690.577,-819.824,-1000.000,-580.078,-803.711,69
1614034690.581,733.887,96.191,-551.270,-18.066,69
1614034690.585,-846.680,-891.602,-577.148,-1000.000,69
1614034690.589,-151.855,-282.715,-567.383,-136.719,69
1614034690.592,-1000.000,-1000.000,-556.152,-782.227,69
1614034690.596,77.637,-214.844,-476.562,217.285,69
1614034690.600,-757.324,-835.938,-472.168,-1000.000,69
1614034690.604,195.312,219.238,-560.547,-274.414,69
1614034690.608,-1000.000,-1000.000,-561.035,-816.406,69
1614034690.612,-271.973,-430.176,-468.750,529.297,69
1614034690.616,-802.734,-874.512,-443.848,-1000.000,69
1614034690.620,336.914,279.785,-582.520,-579.590,69
1614034690.624,-1000.000,-1000.000,-609.863,976.074,69
1614034690.628,-455.566,-928.223,-514.160,996.094,69
1614034690.632,-952.148,641.602,-563.477,-449.219,69
1614034690.635,869.141,745.605,-645.508,-1000.000,69
1614034690.639,-695.801,-829.590,-575.195,264.160,69
1614034690.643,-965.820,-1000.000,-514.160,-770.508,69
1614034690.647,564.453,-23.926,-516.113,138.184,69
1614034690.651,-807.129,-850.098,-569.336,-1000.000,69
1614034690.655,-39.551,-128.906,-573.730,-259.766,69
1614034690.659,-1000.000,-1000.000,-489.746,-798.828,69
1614034690.663,-35.645,-222.656,-459.473,229.004,69
1614034690.667,-764.160,-831.543,-578.125,-1000.000,69
1614034690.671,205.078,245.605,-577.637,-271.484,69
1614034690.674,-1000.000,-1000.000,-556.641,-829.590,69
1614034690.678,-277.344,-550.781,-534.668,617.188,69
1614034690.682,-806.152,-926.758,-588.867,-1000.000,69
1614034690.686,461.914,384.277,-605.469,-671.875,69
1614034690.690,-1000.000,-1000.000,-531.250,895.508,69
1614034690.694,-481.934,-1000.000,-498.535,-900.391,69
1614034690.698,958.496,427.246,-552.734,-252.441,69
1614034690.702,-994.629,895.020,-579.102,-1000.000,69
1614034690.706,-468.262,-653.320,-448.730,125.488,69
1614034690.710,-1000.000,-1000.000,-503.906,-760.254,69
1614034690.713,382.324,-143.066,-562.988,193.359,69
1614034690.717,-775.879,-848.633,-572.754,-1000.000,69
1614034690.721,73.730,2.930,-584.961,-270.508,69
1614034690.725,-1000.000,-1000.000,-585.449,-798.828,69
1614034690.729,-150.879,-238.281,-532.227,306.641,69
1614034690.733,-776.855,-828.125,-516.602,-1000.000,69
1614034690.737,215.332,243.652,-555.664,-374.023,69
1614034690.741,-1000.000,-1000.000,-565.430,-888.672,69
1614034690.745,-274.414,-656.250,-512.207,756.836,69
1614034690.749,-826.172,994.141,-517.090,-843.750,69
1614034690.753,581.055,499.023,-607.422,-880.371,69
1614034690.756,-1000.000,-1000.000,-613.770,672.363,69
1614034690.760,-664.551,-1000.000,-538.574,-841.797,69
1614034690.764,890.625,251.953,-550.293,-143.555,69
1614034690.768,-895.020,-984.375,-616.699,-1000.000,69
1614034690.772,-261.719,-472.168,-582.520,2.441,69
1614034690.776,-1000.000,-1000.000,-520.020,-767.090,69
1614034690.780,187.500,-197.266,-476.074,203.613,69
1614034690.784,-756.348,-841.797,-559.570,-1000.000,69
1614034690.788,187.988,132.812,-567.383,-274.902,69
1614034690.792,-1000.000,-1000.000,-521.484,-806.152,69
1614034690.795,-268.066,-321.289,-466.797,434.082,69
1614034690.799,-798.340,-844.238,-567.871,-1000.000,69
1614034690.803,255.371,245.117,-625.000,-480.957,69
1614034690.807,-1000.000,-1000.000,-552.734,-953.613,69
1614034690.811,-333.496,-786.133,-500.977,889.160,69
1614034690.815,-875.977,848.145,-581.543,-668.457,69
1614034690.819,729.004,617.188,-646.973,-973.633,69
1614034690.823,-884.766,-937.988,-530.273,559.082,69
1614034690.827,-825.195,-1000.000,-481.445,-806.152,69
1614034690.831,734.863,104.980,-559.082,-38.086,69
1614034690.835,-846.680,-886.230,-621.094,-1000.000,69
1614034690.838,-151.855,-274.902,-494.141,-47.363,69
1614034690.842,-1000.000,-1000.000,-412.598,-766.113,69
1614034690.846,77.637,-215.332,-494.629,206.543,69
1614034690.850,-757.324,-836.426,-588.867,-1000.000,69
1614034690.854,195.312,221.680,-513.672,-276.367,69
1614034690.858,-1000.000,-1000.000,-512.695,-816.406,69
1614034690.862,-272.949,-455.566,-557.129,528.809,69
1614034690.866,-803.223,-886.230,-570.801,-1000.000,69
1614034690.870,358.398,295.898,-602.051,-566.895,69
1614034690.874,-1000.000,-1000.000,-584.961,978.516,69
1614034690.877,-457.520,-893.555,-519.043,-990.723,69
1614034690.881,-934.570,598.633,-543.945,-488.281,69
1614034690.885,831.543,601.562,-609.863,-1000.000,69
1614034690.889,-756.348,-854.492,-548.340,471.191,69
1614034690.893,-958.984,-1000.000,-531.738,-786.133,69
1614034690.897,565.430,-24.414,-523.926,74.219,69
1614034690.901,-811.523,-847.656,-560.059,-1000.000,69
1614034690.905,-36.133,-115.234,-578.613,-150.879,69
1614034690.909,-1000.000,-1000.000,-572.266,-776.367,69
1614034690.913,-69.336,-223.633,-488.770,215.820,69
1614034690.916,-770.508,-830.566,-485.840,-1000.000,69
1614034690.920,208.984,245.605,-604.980,-274.414,69
1614034690.924,-1000.000,-1000.000,-580.078,-828.125,69
1614034690.928,-274.902,-563.965,-499.023,608.887,69
1614034690.932,-813.477,-934.082,-590.820,-1000.000,69
1614034690.936,482.910,391.113,-676.270,-655.762,69
1614034690.940,-1000.000,-1000.000,-584.961,902.344,69
1614034690.944,-570.312,-1000.000,-462.891,-898.438,69
1614034690.948,969.238,411.133,-543.457,-260.254,69
1614034690.952,-994.629,897.461,-684.570,-1000.000,69
1614034690.956,-470.703,-650.391,-562.500,187.988,69
1614034690.959,-1000.000,-1000.000,-520.020,-755.859,69
1614034690.963,382.324,-149.414,-562.500,187.988,69
1614034690.967,-778.320,-849.121,-617.188,-1000.000,69
1614034690.971,76.660,14.160,-552.734,-270.996,69
1614034690.975,-1000.000,-1000.000,-499.023,-794.434,69
1614034690.979,-186.523,-254.395,-508.301,293.457,69
1614034690.983,-786.133,-832.520,-569.824,-1000.000,69
1614034690.987,220.703,244.629,-531.738,-277.344,69
1614034690.991,-1000.000,-1000.000,-465.332,-857.422,69
1614034690.995,-273.438,-684.570,-530.273,748.535,69
1614034690.998,-825.684,967.285,-611.328,-860.352,69
1614034691.002,580.566,502.441,-588.379,-789.551,69
1614034691.006,-1000.000,-1000.000,-482.422,783.203,69
1614034691.010,-664.551,-1000.000,-523.438,-854.980,69
1614034691.014,890.625,223.145,-583.496,-149.902,69
1614034691.018,-895.020,-976.562,-623.047,-1000.000,69
1614034691.022,-261.230,-458.984,-536.621,78.125,69
1614034691.026,-1000.000,-1000.000,-522.461,-756.836,69
1614034691.030,187.500,-200.684,-539.062,195.801,69
1614034691.034,-756.348,-842.285,-526.855,-1000.000,69
1614034691.037,187.988,146.484,-540.527,-274.414,69
1614034691.041,-1000.000,-1000.000,-570.312,-802.246,69
1614034691.045,-267.578,-346.680,-517.090,392.090,69
1614034691.049,-800.293,-852.539,-565.918,-1000.000,69
1614034691.053,251.953,245.605,-617.188,-421.387,69
1614034691.057,-1000.000,-1000.000,-567.383,-934.570,69
1614034691.061,-366.211,-827.637,-486.816,881.348,69
1614034691.065,-892.090,797.363,-535.156,-666.992,69
1614034691.069,751.465,624.512,-637.207,-964.844,69
1614034691.073,-869.629,-936.523,-576.172,573.242,69
1614034691.077,-827.637,-1000.000,-510.742,-807.129,69
1614034691.080,735.840,82.031,-470.215,-39.062,69
1614034691.084,-847.168,-886.719,-597.168,-1000.000,69
1614034691.088,-150.879,-268.555,-592.773,-35.645,69
1614034691.092,-1000.000,-1000.000,-541.504,-763.672,69
1614034691.096,69.824,-215.332,-561.523,205.078,69
1614034691.100,-758.789,-835.938,-608.398,-1000.000,69
1614034691.104,196.289,224.121,-596.191,-275.879,69
1614034691.108,-1000.000,-1000.000,-562.012,-813.477,69
1614034691.112,-274.902,-461.914,-544.922,492.188,69
1614034691.116,-806.152,-888.184,-590.332,-1000.000,69
1614034691.119,411.133,296.387,-641.113,-560.547,69
1614034691.123,-1000.000,-1000.000,-511.719,981.934,69
1614034691.127,-477.051,-948.730,-462.402,988.281,69
1614034691.131,-956.055,611.328,-622.559,-492.188,69
1614034691.135,889.648,760.254,-660.645,-1000.000,69
1614034691.139,-669.922,-815.430,-566.895,382.324,69
1614034691.143,-969.238,-1000.000,-548.340,-775.879,69
1614034691.147,565.430,-41.016,-583.984,74.219,69
1614034691.151,-808.594,-849.121,-604.004,-1000.000,69
1614034691.155,-36.133,-111.816,-561.035,-150.391,69
1614034691.158,-1000.000,-1000.000,-558.105,-775.879,69
1614034691.162,-67.871,-223.633,-541.016,215.820,69
1614034691.166,-770.508,-831.543,-566.895,-1000.000,69
1614034691.170,208.984,245.605,-576.172,-274.414,69
1614034691.174,-1000.000,-1000.000,-562.988,-826.172,69
1614034691.178,-274.902,-579.102,-552.734,596.680,69
1614034691.182,-812.500,-942.383,-557.617,-1000.000,69
1614034691.186,470.703,382.324,-565.430,-632.812,69
1614034691.190,-1000.000,-1000.000,-587.402,914.551,69
1614034691.194,-568.359,-1000.000,-567.383,-902.344,69
1614034691.198,968.750,348.633,-534.668,-258.789,69
1614034691.201,-994.141,895.508,-575.684,-1000.000,69
1614034691.205,-470.215,-654.297,-599.121,187.988,69
1614034691.209,-1000.000,-1000.000,-559.570,-755.859,69
1614034691.213,379.883,-170.898,-521.484,187.988,69
1614034691.217,-779.297,-854.980,-574.219,-1000.000,69
1614034691.221,78.613,16.113,-629.883,-266.602,69
1614034691.225,-1000.000,-1000.000,-574.707,-797.363,69
1614034691.229,-208.496,-264.160,-556.152,230.957,69
1614034691.233,-791.992,-836.426,-600.098,-1000.000,69
1614034691.237,223.633,245.605,-608.398,-320.312,69
1614034691.240,-1000.000,-1000.000,-553.223,-854.492,69
1614034691.244,-272.949,-705.566,-516.602,652.344,69
1614034691.248,-825.684,945.801,-606.445,-971.680,69
1614034691.252,580.566,508.789,-664.062,-791.504,69
1614034691.256,-1000.000,-1000.000,-541.992,780.273,69
1614034691.260,-664.551,-1000.000,-499.023,-912.109,69
1614034691.264,890.625,296.387,-599.609,-251.465,69
1614034691.268,-895.020,-988.281,-651.367,-1000.000,69
1614034691.272,-261.230,-457.031,-582.031,78.613,69
1614034691.276,-1000.000,-1000.000,-532.715,-760.254,69
1614034691.279,187.500,-207.031,-559.570,195.801,69
1614034691.283,-756.348,-844.727,-618.164,-1000.000,69
1614034691.287,187.988,150.879,-558.105,-271.973,69
1614034691.291,-1000.000,-1000.000,-507.324,-799.805,69
1614034691.295,-266.602,-362.793,-564.941,334.961,69
1614034691.299,-800.781,-857.910,-607.422,-1000.000,69
1614034691.303,233.887,247.559,-556.152,-406.738,69
1614034691.307,-1000.000,-1000.000,-523.926,-914.062,69
1614034691.311,-362.305,-837.891,-581.543,807.617,69
1614034691.315,-895.996,784.668,-608.887,-759.277,69
1614034691.319,763.184,628.418,-645.020,-958.496,69
1614034691.322,-857.422,-936.035,-602.051,566.406,69
1614034691.326,-829.590,-1000.000,-574.219,-812.012,69
