timestamps,TP9,AF7,AF8,TP10,Marker0
1614036664.456,667.969,666.016,-705.078,-707.031,Default
1614036664.460,945.801,979.492,-632.812,-1000.000,Default
1614036664.463,-756.348,-661.133,-555.176,647.949,Default
1614036664.467,-1000.000,-1000.000,-456.543,-896.973,Default
1614036664.471,509.277,312.500,-626.953,-512.207,Default
1614036664.475,976.562,991.211,-648.438,-1000.000,Default
1614036664.479,-604.004,-532.715,-533.203,378.906,Default
1614036664.483,-1000.000,-1000.000,-273.926,-792.480,Default
1614036664.487,-238.770,-547.363,-562.988,170.898,Default
1614036664.491,-987.793,910.645,-701.172,-1000.000,Default
1614036664.495,-167.969,38.086,-567.871,-402.344,Default
1614036664.499,-1000.000,-1000.000,-440.430,-951.172,Default
1614036664.503,-829.102,-895.996,-583.008,852.539,Default
1614036664.506,749.512,673.828,-669.922,-786.621,Default
1614036664.510,728.027,815.918,-548.828,-978.027,Default
1614036664.514,-1000.000,-921.875,-480.957,758.301,0
1614036664.518,-985.352,-1000.000,-583.984,-995.117,0
1614036664.522,668.457,608.398,-649.902,-714.844,Default
1614036664.526,993.652,982.910,-526.855,-1000.000,0
1614036664.530,-665.527,-636.230,-551.758,647.461,0
1614036664.534,-1000.000,-1000.000,-487.793,-873.047,0
1614036664.538,379.395,79.590,-623.047,-402.344,0
1614036664.542,634.766,628.906,-665.039,-796.875,Default
1614036664.545,-696.777,-578.613,-573.730,398.926,0
1614036664.549,-1000.000,-1000.000,-447.266,-863.281,0
1614036664.553,-571.289,-711.426,-603.027,494.629,0
1614036664.557,946.289,867.188,-666.992,-1000.000,0
1614036664.561,88.867,316.895,-617.188,-689.453,Default
1614036664.565,-1000.000,-1000.000,-471.191,945.801,0
1614036664.569,-909.668,-931.641,-566.895,957.031,0
1614036664.573,667.969,665.527,-665.527,-692.871,0
1614036664.577,820.312,903.320,-612.793,-1000.000,0
1614036664.581,-937.012,-805.664,-548.828,679.199,Default
1614036664.585,-1000.000,-1000.000,-513.184,-983.887,0
1614036664.588,668.945,505.859,-654.785,-716.309,0
1614036664.592,973.633,977.051,-645.996,-1000.000,0
1614036664.596,-628.418,-603.027,-568.848,559.082,0
1614036664.600,-1000.000,-1000.000,-383.789,-981.445,0
1614036664.604,147.949,-200.684,-576.172,-240.723,Default
1614036664.608,-986.816,986.328,-687.500,-1000.000,0
1614036664.612,-374.023,-245.605,-598.145,-45.410,0
1614036664.616,-1000.000,-1000.000,-305.664,-834.961,0
1614036664.620,-658.203,-787.598,-507.812,668.945,0
1614036664.624,885.254,777.832,-719.727,-939.453,Default
1614036664.628,310.059,566.895,-597.656,-804.199,0
1614036664.631,-1000.000,-1000.000,-440.918,896.484,0
1614036664.635,-929.688,-961.914,-577.637,971.680,0
1614036664.639,659.180,664.551,-717.285,-701.172,0
1614036664.643,924.316,971.191,-603.027,-1000.000,0
1614036664.647,-806.641,-702.637,-545.410,673.828,Default
1614036664.651,-1000.000,-1000.000,-501.953,-943.359,0
1614036664.655,547.852,397.949,-648.438,-594.238,0
1614036664.659,689.453,695.801,-631.836,-828.613,0
1614036664.663,-731.934,-689.453,-519.043,533.203,0
1614036664.667,-1000.000,-1000.000,-395.508,-846.191,Default
1614036664.670,-161.133,-480.957,-608.887,115.234,0
1614036664.674,-978.516,947.266,-647.949,-1000.000,0
1614036664.678,-260.742,-58.105,-481.445,-261.230,0
1614036664.682,-1000.000,-1000.000,-433.105,-895.020,0
1614036664.686,-750.000,-875.000,-627.930,775.391,0
1614036664.690,824.219,693.359,-668.945,-850.098,0
1614036664.694,587.402,759.766,-574.219,-929.688,0
1614036664.698,-1000.000,-967.773,-506.348,795.898,Default
1614036664.702,-963.379,-1000.000,-589.844,996.094,0
1614036664.706,657.227,633.301,-625.488,-712.891,0
1614036664.710,999.512,986.328,-560.547,-1000.000,0
1614036664.713,-655.762,-628.906,-604.004,630.859,Default
1614036664.717,-1000.000,-1000.000,-528.809,-857.422,0
1614036664.721,415.527,158.203,-547.852,-391.113,0
1614036664.725,975.586,-998.047,-597.656,-1000.000,0
1614036664.729,-595.215,-455.078,-631.836,268.555,0
1614036664.733,-1000.000,-1000.000,-496.094,-790.527,0
1614036664.737,-362.305,-646.973,-624.512,462.891,Default
1614036664.741,998.535,874.512,-679.688,-1000.000,0
1614036664.745,-17.090,228.516,-606.445,-655.273,0
1614036664.749,-1000.000,-1000.000,-450.684,963.379,0
1614036664.752,-895.020,-921.387,-584.961,945.312,0
1614036664.756,674.316,663.086,-655.762,-697.266,0
1614036664.760,820.801,885.742,-578.613,-1000.000,Default
1614036664.764,-945.312,-843.262,-487.793,683.105,0
1614036664.768,-998.535,-1000.000,-392.090,-987.793,0
1614036664.772,674.316,547.852,-640.137,-714.844,0
1614036664.776,888.184,878.906,-639.160,-928.711,0
1614036664.780,-676.758,-642.578,-550.781,629.883,Default
1614036664.784,-1000.000,-1000.000,-471.680,-843.262,0
1614036664.788,280.762,-128.418,-623.047,-195.312,0
1614036664.792,-952.637,999.512,-671.387,-1000.000,0
1614036664.795,-450.684,-298.828,-506.836,42.969,0
1614036664.799,-1000.000,-1000.000,-349.609,-825.684,Default
1614036664.803,-638.184,-753.418,-599.609,663.574,0
1614036664.807,900.391,807.617,-665.039,-933.594,0
1614036664.811,305.176,496.094,-510.742,-797.852,0
1614036664.815,-1000.000,-1000.000,-440.918,902.832,0
1614036664.819,-933.105,-953.125,-623.047,970.215,0
1614036664.823,673.340,668.945,-694.336,-706.055,Default
1614036664.827,880.859,948.730,-590.820,-1000.000,0
1614036664.831,-849.121,-721.191,-557.129,657.715,0
1614036664.835,-979.004,-1000.000,-555.176,974.121,0
1614036664.838,630.859,473.145,-637.695,-629.395,Default
1614036664.842,964.355,956.543,-613.281,-1000.000,0
1614036664.846,-610.352,-585.449,-587.402,456.543,0
1614036664.850,-1000.000,-1000.000,-437.500,-794.434,0
1614036664.854,-23.926,-376.465,-577.148,83.984,0
1614036664.858,-958.008,958.496,-595.215,-1000.000,0
1614036664.862,-283.203,-129.883,-575.684,-234.375,Default
1614036664.866,-1000.000,-1000.000,-487.305,-882.324,0
1614036664.870,-742.676,-841.309,-598.633,768.066,0
1614036664.874,823.242,716.797,-673.828,-854.492,0
1614036664.877,423.340,615.234,-605.957,-797.852,0
1614036664.881,-1000.000,-1000.000,-478.027,865.723,0
1614036664.885,-941.895,-978.027,-514.648,972.656,Default
1614036664.889,660.645,649.414,-660.156,-702.148,0
1614036664.893,947.266,985.352,-617.676,-1000.000,0
1614036664.897,-750.488,-648.926,-540.039,635.742,0
1614036664.901,-1000.000,-1000.000,-374.023,-867.676,0
1614036664.905,483.887,269.531,-580.566,-432.617,0
1614036664.909,972.168,997.070,-672.852,-1000.000,0
1614036664.913,-596.191,-509.766,-572.266,323.242,0
1614036664.917,-1000.000,-1000.000,-412.109,-784.668,Default
1614036664.920,-349.609,-576.172,-611.328,362.305,0
1614036664.924,979.980,906.738,-681.641,-1000.000,0
1614036664.928,-135.742,110.840,-574.219,-491.211,0
1614036664.932,-1000.000,-1000.000,-454.102,-960.449,0
1614036664.936,-827.637,-906.738,-608.398,868.652,Default
1614036664.940,750.000,669.434,-695.801,-778.320,0
1614036664.944,728.027,840.820,-560.059,-982.422,0
1614036664.948,-1000.000,-894.043,-484.863,754.883,0
1614036664.952,-985.352,-1000.000,-567.871,-994.141,Default
1614036664.956,669.922,589.844,-667.969,-717.285,Default
1614036664.959,989.258,982.422,-589.355,-1000.000,Default
1614036664.963,-641.602,-618.164,-555.176,619.141,Default
1614036664.967,-1000.000,-1000.000,-473.633,-833.984,Default
1614036664.971,298.340,16.602,-622.070,-291.016,Default
1614036664.975,-978.027,-991.211,-616.211,-1000.000,Default
1614036664.979,-493.652,-368.164,-575.195,177.246,Default
1614036664.983,-1000.000,-1000.000,-514.648,-791.016,Default
1614036664.987,-559.570,-699.707,-627.930,577.148,Default
1614036664.991,928.711,847.656,-596.191,-993.652,Default
1614036664.995,92.773,369.141,-546.387,-708.984,Default
1614036664.999,-1000.000,-1000.000,-496.094,963.867,Default
1614036665.002,-897.461,-927.734,-604.492,944.336,Default
1614036665.006,663.574,666.992,-623.535,-695.801,Default
1614036665.010,653.320,720.215,-570.801,-849.609,Default
1614036665.014,-968.750,-860.840,-543.945,738.281,Default
1614036665.018,-1000.000,-1000.000,-486.328,-969.238,Default
1614036665.022,591.797,472.656,-626.465,-614.258,Default
1614036665.026,989.258,981.934,-633.789,-1000.000,Default
1614036665.030,-623.047,-600.586,-591.309,530.762,Default
1614036665.034,-1000.000,-1000.000,-479.004,-803.711,Default
1614036665.038,78.613,-245.605,-605.957,-56.641,Default
1614036665.042,-972.168,984.375,-642.578,-1000.000,Default
1614036665.045,-380.859,-220.703,-596.680,-47.363,Default
1614036665.049,-1000.000,-1000.000,-420.898,-833.008,Default
1614036665.053,-663.574,-802.734,-538.086,678.223,Default
1614036665.057,888.184,764.160,-684.570,-925.293,Default
1614036665.061,401.367,625.488,-599.609,-829.590,Default
1614036665.065,-1000.000,-1000.000,-428.711,875.977,Default
1614036665.069,-942.383,-970.703,-536.133,977.051,Default
1614036665.073,660.156,666.992,-664.551,-709.961,Default
1614036665.077,947.754,978.027,-608.887,-1000.000,Default
1614036665.081,-756.348,-673.828,-472.656,643.555,Default
1614036665.084,-1000.000,-1000.000,-328.613,-989.258,Default
1614036665.088,508.789,364.258,-604.004,-540.039,Default
1614036665.092,981.445,986.328,-642.090,-1000.000,Default
1614036665.096,-607.422,-556.152,-502.441,394.043,Default
1614036665.100,-1000.000,-1000.000,-426.270,-784.668,Default
1614036665.104,-139.648,-506.348,-656.250,163.574,Default
1614036665.108,-982.422,922.363,-662.598,-1000.000,Default
1614036665.112,-250.000,-20.996,-584.473,-310.059,Default
1614036665.116,-1000.000,-1000.000,-484.375,-911.133,Default
1614036665.120,-766.602,-880.371,-617.676,807.129,Default
1614036665.124,810.547,683.594,-666.992,-814.453,Default
1614036665.127,714.844,812.012,-574.707,-966.309,Default
1614036665.131,-998.535,-931.152,-478.027,764.160,Default
1614036665.135,-985.352,-1000.000,-536.133,-996.582,Default
1614036665.139,667.480,635.742,-643.066,-714.355,Default
1614036665.143,997.070,983.398,-506.348,-1000.000,Default
1614036665.147,-655.762,-626.465,-561.035,635.742,Default
1614036665.151,-1000.000,-1000.000,-541.504,-861.816,Default
1614036665.155,415.527,129.883,-629.883,-392.090,Default
1614036665.159,971.680,-1000.000,-638.672,-1000.000,Default
1614036665.163,-591.797,-444.824,-583.984,318.848,Default
1614036665.166,-1000.000,-1000.000,-476.562,-800.293,Default
1614036665.170,-451.660,-651.855,-582.031,491.699,Default
1614036665.174,962.402,865.234,-644.531,-1000.000,Default
1614036665.178,-45.410,147.949,-569.824,-531.250,Default
1614036665.182,-1000.000,-1000.000,-427.246,-986.328,Default
1614036665.186,-888.184,-907.227,-515.625,919.922,Default
1614036665.190,665.527,655.273,-634.277,-691.895,Default
1614036665.194,823.242,893.555,-613.770,-1000.000,Default
1614036665.198,-939.941,-829.590,-524.902,677.734,Default
1614036665.202,-1000.000,-1000.000,-462.891,-979.980,Default
1614036665.206,676.270,539.551,-636.230,-720.215,Default
1614036665.209,987.793,978.516,-638.184,-1000.000,Default
1614036665.213,-647.461,-612.305,-570.312,613.770,Default
1614036665.217,-1000.000,-1000.000,-454.590,-830.566,Default
1614036665.221,276.855,-143.066,-615.234,-196.777,Default
1614036665.225,953.613,894.531,-640.137,-1000.000,Default
1614036665.229,-465.820,-320.801,-539.551,59.570,Default
1614036665.233,-1000.000,-1000.000,-337.402,-831.055,Default
1614036665.237,-668.457,-770.020,-591.309,669.434,Default
1614036665.241,886.719,803.223,-707.031,-931.641,Default
1614036665.245,309.570,514.160,-565.430,-798.828,Default
1614036665.249,-1000.000,-1000.000,-454.590,903.320,Default
1614036665.252,-932.617,-955.078,-592.285,970.215,Default
1614036665.256,667.969,663.574,-678.223,-700.684,Default
1614036665.260,887.207,959.473,-537.109,-1000.000,Default
1614036665.264,-851.074,-711.914,-512.207,659.668,Default
1614036665.268,-1000.000,-1000.000,-558.594,-926.758,Default
1614036665.272,597.656,421.875,-647.461,-599.121,Default
1614036665.276,976.562,974.609,-543.457,-1000.000,Default
1614036665.280,-613.281,-587.891,-559.570,472.168,Default
1614036665.284,-1000.000,-1000.000,-511.230,-796.387,Default
1614036665.288,-88.379,-396.973,-626.953,81.055,Default
1614036665.291,-972.656,952.637,-668.945,-1000.000,Default
1614036665.295,-267.090,-116.211,-598.145,-208.008,Default
1614036665.299,-1000.000,-1000.000,-470.215,-878.418,Default
1614036665.303,-748.047,-850.586,-599.609,759.277,Default
1614036665.307,825.195,715.820,-660.156,-864.746,Default
1614036665.311,522.949,720.703,-576.660,-895.508,Default
1614036665.315,-1000.000,-994.141,-476.562,831.055,Default
1614036665.319,-958.008,-995.117,-532.715,988.770,Default
1614036665.323,669.434,659.180,-585.938,-708.008,Default
1614036665.327,940.918,980.469,-590.820,-1000.000,Default
1614036665.331,-746.094,-649.414,-587.891,645.508,Default
1614036665.334,-1000.000,-1000.000,-471.191,-889.648,Default
1614036665.338,453.613,258.301,-633.301,-506.348,Default
1614036665.342,973.633,992.188,-659.668,-1000.000,Default
1614036665.346,-595.703,-513.184,-589.844,397.461,Default
1614036665.350,-1000.000,-1000.000,-377.930,-791.016,Default
1614036665.354,-338.379,-577.148,-568.359,238.770,Default
1614036665.358,983.887,904.785,-698.242,-1000.000,Default
1614036665.362,-137.207,102.539,-588.379,-424.316,Default
1614036665.366,-1000.000,-1000.000,-354.004,-950.195,Default
1614036665.370,-828.125,-907.227,-515.625,854.004,Default
1614036665.373,750.488,668.457,-700.684,-786.621,Default
1614036665.377,728.027,836.914,-609.375,-978.027,Default
1614036665.381,-1000.000,-896.973,-399.902,758.301,Default
1614036665.385,-985.840,-1000.000,-438.477,-995.117,Default
1614036665.389,669.922,586.426,-696.289,-715.332,Default
1614036665.393,988.770,982.422,-614.258,-1000.000,Default
1614036665.397,-641.602,-617.188,-481.934,629.883,Default
1614036665.401,-1000.000,-1000.000,-439.941,-855.957,Default
1614036665.405,298.340,10.254,-649.414,-365.723,Default
1614036665.409,-978.027,-994.141,-656.738,-1000.000,Default
1614036665.413,-493.652,-370.605,-562.012,212.891,Default
1614036665.416,-1000.000,-1000.000,-413.086,-792.969,Default
1614036665.420,-559.570,-707.031,-616.699,501.465,Default
1614036665.424,928.711,839.355,-667.480,-1000.000,Default
1614036665.428,92.285,361.328,-498.535,-695.801,Default
1614036665.432,-1000.000,-1000.000,-425.293,949.219,Default
1614036665.436,-907.715,-936.523,-603.027,956.543,Default
1614036665.440,661.621,665.039,-676.270,-692.871,Default
1614036665.444,851.562,916.016,-582.031,-1000.000,Default
1614036665.448,-900.391,-791.504,-538.086,684.082,Default
1614036665.452,-1000.000,-1000.000,-546.875,-990.234,Default
1614036665.456,618.652,485.840,-600.098,-708.008,Default
1614036665.459,882.812,875.977,-579.590,-948.730,Default
1614036665.463,-657.227,-632.812,-598.145,590.820,Default
1614036665.467,-1000.000,-1000.000,-468.750,-837.402,Default
1614036665.471,70.801,-273.926,-548.340,-144.531,Default
1614036665.475,-969.238,977.539,-642.578,-1000.000,Default
1614036665.479,-380.371,-223.145,-620.117,-35.645,Default
1614036665.483,-1000.000,-1000.000,-433.105,-839.844,Default
1614036665.487,-663.086,-813.477,-559.082,680.664,Default
1614036665.491,880.371,750.488,-685.547,-930.176,Default
1614036665.495,311.035,603.516,-618.652,-806.641,Default
1614036665.498,-1000.000,-1000.000,-443.848,897.461,Default
1614036665.502,-927.734,-966.309,-564.941,971.680,Default
1614036665.506,652.832,665.039,-677.734,-701.660,Default
1614036665.510,950.195,978.516,-609.375,-1000.000,Default
1614036665.514,-756.836,-675.293,-524.414,657.715,Default
1614036665.518,-1000.000,-1000.000,-307.129,-923.340,Default
1614036665.522,512.207,371.094,-605.469,-570.312,Default
1614036665.526,980.957,988.770,-687.988,-1000.000,Default
1614036665.530,-607.422,-554.688,-551.758,407.227,Default
1614036665.534,-1000.000,-1000.000,-427.734,-791.992,Default
1614036665.538,-138.184,-507.812,-605.469,110.352,Default
1614036665.541,-984.863,920.898,-665.527,-1000.000,Default
1614036665.545,-262.207,-24.902,-522.461,-263.672,Default
1614036665.549,-1000.000,-1000.000,-381.348,-893.555,Default
1614036665.553,-809.570,-884.766,-594.727,776.855,Default
1614036665.557,762.207,681.641,-679.199,-855.957,Default
1614036665.561,682.617,783.691,-523.438,-906.250,Default
1614036665.565,-1000.000,-951.172,-469.238,821.777,Default
1614036665.569,-978.027,-1000.000,-597.168,991.211,Default
1614036665.573,664.062,629.395,-681.641,-710.449,Default
1614036665.577,998.047,984.375,-609.375,-1000.000,Default
1614036665.580,-655.762,-626.465,-578.613,634.766,Default
1614036665.584,-1000.000,-1000.000,-454.102,-866.211,Default
1614036665.588,414.551,127.441,-607.910,-417.480,Default
1614036665.592,976.074,-996.582,-651.367,-1000.000,Default
1614036665.596,-587.891,-438.477,-579.590,291.016,Default
1614036665.600,-1000.000,-1000.000,-416.016,-785.156,Default
1614036665.604,-430.664,-659.180,-563.965,375.488,Default
1614036665.608,974.609,865.234,-589.844,-1000.000,Default
1614036665.612,24.902,238.281,-584.961,-542.480,Default
1614036665.616,-1000.000,-1000.000,-470.215,-989.746,Default
1614036665.620,-906.738,-922.363,-572.754,898.926,Default
1614036665.623,664.551,664.062,-702.637,-736.328,Default
1614036665.627,822.266,883.301,-605.469,-1000.000,Default
1614036665.631,-939.941,-835.449,-509.277,699.219,Default
1614036665.635,-1000.000,-1000.000,-467.773,-984.375,Default
1614036665.639,677.734,532.715,-638.672,-718.750,Default
1614036665.643,981.934,978.027,-669.922,-1000.000,Default
1614036665.647,-633.301,-605.469,-566.895,617.188,Default
1614036665.651,-1000.000,-1000.000,-318.848,-829.590,Default
1614036665.655,197.754,-152.832,-558.594,-278.320,Default
1614036665.659,-974.121,985.352,-693.359,-1000.000,Default
1614036665.662,-439.453,-296.875,-587.891,176.758,Default
1614036665.666,-1000.000,-1000.000,-360.840,-795.898,Default
1614036665.670,-658.691,-761.719,-569.336,602.539,Default
1614036665.674,883.301,799.316,-719.727,-964.355,Default
1614036665.678,309.570,511.719,-595.703,-768.066,Default
1614036665.682,-1000.000,-1000.000,-448.242,916.016,Default
1614036665.686,-932.617,-955.078,-581.055,965.820,Default
1614036665.690,668.945,665.527,-703.125,-698.730,Default
1614036665.694,884.766,953.125,-578.125,-1000.000,Default
1614036665.698,-845.703,-717.285,-505.371,661.133,Default
1614036665.702,-1000.000,-1000.000,-510.254,-930.664,Default
1614036665.705,571.289,412.598,-654.785,-615.723,Default
1614036665.709,975.586,971.680,-643.555,-1000.000,Default
1614036665.713,-608.398,-590.332,-579.590,510.742,Default
1614036665.717,-1000.000,-1000.000,-405.762,-806.152,Default
1614036665.721,-137.695,-409.180,-612.305,-26.855,Default
1614036665.725,-986.328,947.266,-633.301,-1000.000,Default
1614036665.729,-260.254,-117.676,-526.367,-162.109,Default
1614036665.733,-1000.000,-1000.000,-469.727,-874.512,Default
1614036665.737,-747.070,-855.957,-617.188,745.605,Default
1614036665.741,825.195,708.496,-627.930,-872.559,Default
1614036665.745,522.949,724.121,-551.758,-893.555,Default
1614036665.748,-1000.000,-991.211,-503.418,830.566,Default
1614036665.752,-957.520,-1000.000,-570.801,988.770,Default
1614036665.756,667.480,648.926,-605.469,-708.496,Default
1614036665.760,948.242,982.910,-588.379,-1000.000,Default
1614036665.764,-727.539,-643.066,-599.121,644.043,Default
1614036665.768,-1000.000,-1000.000,-480.957,-887.207,Default
1614036665.772,422.852,235.840,-630.371,-484.375,Default
1614036665.776,974.121,995.605,-651.855,-1000.000,Default
1614036665.780,-593.750,-498.535,-602.539,349.121,Default
1614036665.784,-1000.000,-1000.000,-426.270,-790.039,Default
1614036665.787,-349.609,-597.656,-549.316,270.508,Default
1614036665.791,979.980,894.531,-674.316,-1000.000,Default
1614036665.795,-135.742,123.047,-615.723,-468.750,Default
1614036665.799,-1000.000,-1000.000,-409.180,-962.891,Default
1614036665.803,-827.637,-911.133,-551.758,861.328,Default
1614036665.807,747.559,665.039,-697.266,-787.109,Default
1614036665.811,744.629,847.168,-604.492,-977.539,Default
1614036665.815,-988.770,-885.254,-469.727,758.301,Default
1614036665.819,-989.258,-1000.000,-458.496,-994.629,Default
1614036665.823,671.387,575.684,-663.574,-715.820,Default
1614036665.827,988.770,981.445,-645.996,-1000.000,Default
1614036665.830,-641.602,-615.234,-492.676,626.465,Default
1614036665.834,-1000.000,-1000.000,-344.727,-849.609,Default
1614036665.838,297.852,-21.973,-603.027,-340.820,Default
1614036665.842,-978.027,-995.605,-666.992,-1000.000,Default
1614036665.846,-493.652,-353.027,-472.168,191.406,Default
1614036665.850,-1000.000,-1000.000,-299.316,-792.969,Default
1614036665.854,-559.570,-723.633,-609.863,554.199,Default
1614036665.858,928.711,826.660,-702.148,-1000.000,Default
1614036665.862,92.773,383.789,-596.191,-705.078,Default
1614036665.866,-1000.000,-1000.000,-465.820,952.637,Default
1614036665.869,-906.250,-938.477,-600.098,955.078,Default
1614036665.873,656.250,663.574,-692.383,-693.359,Default
1614036665.877,876.465,926.758,-594.238,-1000.000,Default
1614036665.881,-864.258,-768.555,-514.160,672.852,Default
1614036665.885,-1000.000,-1000.000,-479.492,-964.844,Default
1614036665.889,594.727,473.145,-624.023,-674.316,Default
1614036665.893,985.352,974.121,-543.457,-1000.000,Default
1614036665.897,-623.047,-596.191,-555.664,529.297,Default
1614036665.901,-1000.000,-1000.000,-463.867,-808.594,Default
1614036665.905,78.613,-311.523,-606.934,-86.426,Default
1614036665.909,-972.168,964.844,-654.297,-1000.000,Default
1614036665.912,-381.836,-201.172,-575.195,-43.945,Default
1614036665.916,-1000.000,-1000.000,-458.008,-822.266,Default
1614036665.920,-680.176,-810.059,-568.359,666.016,Default
1614036665.924,875.488,749.512,-670.898,-931.641,Default
1614036665.928,201.172,369.141,-573.730,-551.758,Default
1614036665.932,-1000.000,-1000.000,-433.105,990.234,Default
1614036665.936,-904.297,-924.316,-499.023,927.734,Default
1614036665.940,643.066,645.996,-660.156,-682.129,Default
1614036665.944,954.102,983.887,-644.043,-1000.000,Default
1614036665.948,-755.859,-666.016,-523.438,645.508,Default
1614036665.952,-1000.000,-1000.000,-396.973,-890.137,Default
1614036665.955,509.277,319.336,-630.859,-507.812,Default
1614036665.959,976.562,986.328,-675.293,-1000.000,Default
1614036665.963,-603.027,-542.480,-547.363,400.879,Default
1614036665.967,-1000.000,-1000.000,-377.930,-790.039,Default
1614036665.971,-240.723,-538.574,-600.586,190.918,Default
1614036665.975,-997.070,910.645,-667.969,-1000.000,Default
1614036665.979,-188.965,13.184,-559.082,-365.234,Default
1614036665.983,-1000.000,-1000.000,-346.191,-933.105,Default
1614036665.987,-828.125,-892.578,-555.664,838.867,Default
1614036665.991,757.812,679.688,-704.590,-801.758,Default
1614036665.994,718.262,806.641,-568.848,-961.914,Default
1614036665.998,-1000.000,-923.340,-502.441,764.648,Default
1614036666.002,-789.551,-945.801,-567.383,807.617,Default
1614036666.006,743.652,646.484,-651.855,-790.039,Default
1614036666.010,960.938,966.797,-566.406,-994.629,Default
1614036666.014,-636.230,-613.770,-563.965,615.723,Default
1614036666.018,-1000.000,-1000.000,-491.211,-852.539,Default
1614036666.022,376.465,71.777,-618.652,-388.184,Default
1614036666.026,998.047,-998.047,-549.316,-1000.000,Default
1614036666.030,-537.109,-412.109,-461.426,250.977,Default
1614036666.034,-1000.000,-1000.000,-458.984,-792.480,Default
1614036666.037,-560.059,-677.734,-627.930,525.391,Default
1614036666.041,927.734,857.910,-672.363,-1000.000,Default
1614036666.045,92.285,297.363,-604.492,-678.223,Default
1614036666.049,-1000.000,-1000.000,-465.820,960.938,Default
1614036666.053,-909.668,-929.199,-589.355,951.660,Default
1614036666.057,667.480,664.551,-691.895,-691.406,Default
1614036666.061,821.289,900.879,-604.004,-1000.000,Default
1614036666.065,-939.941,-809.570,-525.879,676.758,Default
1614036666.069,-1000.000,-1000.000,-465.820,-977.051,Default
1614036666.073,676.758,509.766,-562.500,-708.496,Default
1614036666.076,975.586,977.539,-610.352,-1000.000,Default
1614036666.080,-623.535,-603.027,-587.891,581.543,Default
1614036666.084,-1000.000,-1000.000,-432.129,-818.359,Default
1614036666.088,85.938,-197.266,-606.445,-136.230,Default
1614036666.092,-970.703,985.840,-669.922,-1000.000,Default
1614036666.096,-380.859,-260.742,-600.098,9.277,Default
1614036666.100,-1000.000,-1000.000,-418.945,-828.125,Default
1614036666.104,-657.715,-778.320,-558.594,674.805,Default
1614036666.108,885.254,786.621,-694.336,-926.758,Default
1614036666.112,309.570,557.617,-595.703,-807.617,Default
1614036666.116,-1000.000,-1000.000,-388.184,897.461,Default
1614036666.119,-930.664,-960.449,-538.574,971.680,Default
1614036666.123,662.109,664.551,-704.590,-701.660,Default
1614036666.127,914.062,969.238,-591.797,-1000.000,Default
1614036666.131,-805.664,-693.359,-429.688,656.738,Default
1614036666.135,-1000.000,-1000.000,-366.211,-920.410,Default
1614036666.139,541.504,395.996,-645.508,-572.266,Default
1614036666.143,978.516,981.445,-631.348,-1000.000,Default
1614036666.147,-613.281,-571.289,-582.520,426.270,Default
1614036666.151,-1000.000,-1000.000,-479.492,-788.086,Default
1614036666.155,-139.648,-450.195,-628.906,110.352,Default
1614036666.159,914.062,938.477,-655.273,-1000.000,Default
1614036666.162,-294.434,-104.492,-558.105,-165.039,Default
1614036666.166,-1000.000,-1000.000,-428.223,-859.375,Default
1614036666.170,-756.836,-865.234,-599.609,760.742,Default
1614036666.174,827.148,692.871,-667.480,-848.633,Default
1614036666.178,562.012,757.324,-521.973,-905.762,Default
1614036666.182,-1000.000,-971.680,-458.984,824.707,Default
1614036666.186,-958.984,-1000.000,-530.762,990.234,Default
1614036666.190,655.762,639.648,-634.766,-710.449,Default
1614036666.194,-1000.000,988.281,-573.730,-1000.000,Default
1614036666.198,-656.250,-633.301,-573.242,634.766,Default
1614036666.201,-1000.000,-1000.000,-480.957,-865.723,Default
1614036666.205,415.527,202.637,-582.520,-416.992,Default
1614036666.209,975.586,-990.723,-612.305,-1000.000,Default
1614036666.213,-593.750,-463.867,-593.262,291.016,Default
1614036666.217,-1000.000,-1000.000,-472.168,-784.180,Default
1614036666.221,-353.027,-632.324,-541.504,374.512,Default
1614036666.225,985.352,881.348,-641.113,-1000.000,Default
1614036666.229,-103.027,188.965,-603.027,-524.902,Default
1614036666.233,-1000.000,-1000.000,-421.875,-977.051,Default
1614036666.237,-858.887,-917.480,-593.750,882.324,Default
1614036666.241,704.590,664.551,-698.242,-757.324,Default
1614036666.244,799.316,869.141,-583.496,-1000.000,Default
1614036666.248,-952.148,-858.887,-492.676,712.891,Default
1614036666.252,-1000.000,-1000.000,-474.121,-986.816,Default
1614036666.256,674.805,560.547,-628.906,-718.262,Default
1614036666.260,988.281,979.492,-623.535,-1000.000,Default
1614036666.264,-641.602,-610.352,-519.531,617.188,Default
1614036666.268,-1000.000,-1000.000,-273.438,-829.590,Default
1614036666.272,297.852,-86.914,-591.309,-278.320,Default
1614036666.276,-978.516,995.605,-687.012,-1000.000,Default
1614036666.280,-495.605,-324.707,-557.617,176.270,Default
1614036666.283,-1000.000,-1000.000,-488.770,-793.457,Default
1614036666.287,-598.145,-741.699,-613.770,589.355,Default
1614036666.291,922.363,815.430,-675.781,-976.074,Default
1614036666.295,255.371,456.055,-555.176,-754.883,Default
1614036666.299,-1000.000,-1000.000,-421.875,922.852,Default
1614036666.303,-927.734,-947.754,-580.566,963.867,Default
1614036666.307,665.039,664.062,-679.199,-697.754,Default
1614036666.311,887.695,945.312,-512.207,-1000.000,Default
1614036666.315,-851.074,-738.281,-488.281,661.133,Default
1614036666.319,-1000.000,-1000.000,-562.988,-930.176,Default
1614036666.323,596.191,448.730,-660.156,-615.234,Default
1614036666.326,983.887,973.145,-626.953,-1000.000,Default
1614036666.330,-622.559,-594.238,-598.633,512.207,Default
1614036666.334,-1000.000,-1000.000,-484.863,-806.641,Default
1614036666.338,39.551,-357.422,-614.258,-48.340,Default
1614036666.342,-951.172,961.914,-654.785,-1000.000,Default
1614036666.346,-312.988,-148.438,-597.656,-145.020,Default
1614036666.350,-1000.000,-1000.000,-452.148,-868.652,Default
1614036666.354,-728.516,-838.379,-568.848,729.004,Default
1614036666.358,843.262,727.539,-599.609,-887.207,Default
1614036666.362,518.066,692.383,-583.008,-881.836,Default
1614036666.366,-1000.000,-1000.000,-494.629,842.773,Default
1614036666.369,-958.496,-985.840,-551.270,980.957,Default
1614036666.373,667.969,664.551,-686.035,-706.055,Default
1614036666.377,945.801,978.027,-613.281,-935.059,Default
1614036666.381,-755.859,-656.738,-548.828,676.270,Default
1614036666.385,-1000.000,-1000.000,-435.547,-899.414,Default
1614036666.389,507.812,286.621,-615.234,-479.980,Default
1614036666.393,972.656,986.816,-666.016,-1000.000,Default
1614036666.397,-599.121,-532.227,-570.312,382.324,Default
1614036666.401,-1000.000,-1000.000,-340.820,-789.062,Default
1614036666.405,-320.312,-560.547,-562.988,296.387,Default
1614036666.408,989.746,908.203,-722.168,-1000.000,Default
1614036666.412,-140.137,68.359,-589.355,-450.195,Default
1614036666.416,-1000.000,-1000.000,-416.992,-954.590,Default
1614036666.420,-828.613,-901.367,-582.031,865.234,Default
1614036666.424,750.488,670.898,-694.824,-776.855,Default
1614036666.428,728.027,828.613,-571.289,-979.980,Default
1614036666.432,-1000.000,-908.203,-464.355,758.789,Default
1614036666.436,-985.840,-1000.000,-561.523,-994.629,Default
1614036666.440,669.434,598.633,-698.242,-716.309,Default
1614036666.444,990.723,982.422,-569.824,-1000.000,Default
1614036666.448,-645.020,-619.141,-481.445,623.047,Default
1614036666.451,-1000.000,-1000.000,-470.703,-841.309,Default
1614036666.455,320.312,36.133,-645.996,-320.312,Default
1614036666.459,-978.027,-993.652,-638.672,-1000.000,Default
1614036666.463,-495.117,-385.254,-591.797,198.730,Default
1614036666.467,-1000.000,-1000.000,-488.281,-791.504,Default
1614036666.471,-559.570,-690.430,-614.258,561.523,Default
1614036666.475,928.711,852.539,-623.047,-998.535,Default
1614036666.479,92.285,342.773,-552.246,-706.543,Default
1614036666.483,-1000.000,-1000.000,-467.285,953.613,Default
1614036666.487,-909.668,-935.059,-604.980,955.078,Default
1614036666.490,668.457,666.504,-625.000,-693.848,Default
1614036666.494,817.383,904.785,-553.711,-1000.000,Default
1614036666.498,-929.199,-800.781,-568.359,666.992,Default
1614036666.502,-1000.000,-1000.000,-553.223,-947.266,Default
1614036666.506,626.465,496.094,-635.254,-652.344,Default
1614036666.510,981.445,977.051,-620.117,-1000.000,Default
1614036666.514,-623.047,-601.562,-606.934,544.434,Default
1614036666.518,-1000.000,-1000.000,-465.820,-806.641,Default
1614036666.522,78.613,-222.656,-619.141,-63.965,Default
1614036666.526,-972.168,987.793,-672.852,-1000.000,Default
1614036666.530,-379.883,-234.863,-598.145,-46.387,Default
1614036666.533,-1000.000,-1000.000,-448.242,-833.496,Default
1614036666.537,-657.715,-797.852,-570.312,678.711,Default
1614036666.541,885.254,769.043,-645.020,-926.758,Default
1614036666.545,310.059,600.098,-607.422,-822.266,Default
1614036666.549,-1000.000,-1000.000,-425.293,883.301,Default
1614036666.553,-928.711,-966.797,-371.582,975.098,Default
1614036666.557,656.738,666.016,-638.672,-703.613,Default
1614036666.561,934.570,974.609,-635.254,-1000.000,Default
1614036666.565,-772.949,-682.129,-495.117,648.438,Default
1614036666.569,-1000.000,-1000.000,-430.176,-898.926,Default
1614036666.573,507.812,378.418,-640.625,-523.926,Default
1614036666.576,981.445,987.793,-637.695,-1000.000,Default
1614036666.580,-607.422,-558.105,-518.555,401.855,Default
1614036666.584,-1000.000,-1000.000,-394.043,-786.133,Default
1614036666.588,-137.695,-489.258,-604.980,161.133,Default
1614036666.592,-986.328,928.223,-666.992,-1000.000,Default
1614036666.596,-263.184,-32.227,-493.652,-270.996,Default
1614036666.600,-1000.000,-1000.000,-368.164,-898.438,Default
1614036666.604,-784.668,-881.348,-613.281,806.641,Default
1614036666.608,788.086,686.035,-700.195,-813.477,Default
1614036666.612,654.297,777.832,-597.656,-943.359,Default
1614036666.615,-1000.000,-955.566,-505.371,790.527,Default
1614036666.619,-974.121,-1000.000,-573.242,998.047,Default
1614036666.623,662.109,633.301,-671.387,-712.891,Default
1614036666.627,998.047,984.863,-600.098,-1000.000,Default
1614036666.631,-655.762,-627.441,-562.988,630.371,Default
1614036666.635,-1000.000,-1000.000,-457.031,-855.957,Default
1614036666.639,415.527,142.578,-600.586,-393.555,Default
1614036666.643,974.609,-998.047,-589.844,-1000.000,Default
1614036666.647,-593.750,-447.266,-562.500,287.598,Default
1614036666.651,-1000.000,-1000.000,-447.754,-787.598,Default
1614036666.655,-393.555,-650.879,-590.820,427.246,Default
1614036666.658,985.840,871.582,-661.133,-1000.000,Default
1614036666.662,-4.883,231.934,-581.543,-607.422,Default
1614036666.666,-1000.000,-1000.000,-452.148,989.258,Default
1614036666.670,-884.766,-915.527,-545.410,917.969,Default
1614036666.674,678.223,662.109,-664.551,-710.449,Default
1614036666.678,720.215,784.668,-596.680,-949.707,Default
1614036666.682,-973.633,-871.094,-490.723,711.426,Default
1614036666.686,-988.770,-1000.000,-452.148,-996.094,Default
1614036666.690,668.457,534.180,-639.160,-711.914,Default
1614036666.694,989.746,981.445,-665.039,-1000.000,Default
1614036666.697,-641.602,-607.422,-580.078,614.258,Default
1614036666.701,-1000.000,-1000.000,-416.016,-829.102,Default
1614036666.705,282.227,-131.836,-609.863,-230.469,Default
1614036666.709,-962.402,990.234,-667.969,-1000.000,Default
1614036666.713,-460.449,-303.223,-548.340,92.285,Default
1614036666.717,-1000.000,-1000.000,-375.488,-814.453,Default
1614036666.721,-641.602,-754.395,-588.867,639.648,Default
1614036666.725,896.973,806.641,-677.246,-943.848,Default
1614036666.729,305.664,504.883,-554.199,-797.363,Default
1614036666.733,-1000.000,-1000.000,-378.418,899.414,Default
1614036666.737,-933.105,-954.102,-566.895,970.703,Default
1614036666.740,667.969,665.039,-717.773,-700.684,Default
1614036666.744,887.207,954.590,-571.289,-1000.000,Default
1614036666.748,-851.074,-720.215,-536.621,662.109,Default
1614036666.752,-1000.000,-1000.000,-534.668,-933.594,Default
1614036666.756,597.168,428.223,-642.090,-609.375,Default
1614036666.760,977.051,973.145,-586.914,-1000.000,Default
1614036666.764,-613.770,-590.820,-569.824,467.285,Default
1614036666.768,-1000.000,-1000.000,-484.863,-798.340,Default
1614036666.772,-77.148,-389.648,-609.375,70.312,Default
1614036666.776,-975.098,952.148,-587.891,-1000.000,Default
1614036666.780,-280.273,-132.324,-521.973,-222.656,Default
1614036666.783,-1000.000,-1000.000,-475.586,-886.230,Default
1614036666.787,-747.559,-849.609,-616.699,772.949,Default
1614036666.791,824.707,714.355,-684.082,-855.957,Default
1614036666.795,522.461,718.262,-606.445,-897.461,Default
1614036666.799,-1000.000,-995.117,-492.188,832.031,Default
1614036666.803,-957.031,-996.094,-556.152,988.770,Default
1614036666.807,665.039,655.273,-670.898,-709.473,Default
1614036666.811,957.520,983.887,-604.980,-1000.000,Default
1614036666.815,-731.445,-645.996,-555.176,638.184,Default
1614036666.819,-1000.000,-1000.000,-420.410,-874.023,Default
1614036666.822,478.027,262.207,-534.180,-448.242,Default
1614036666.826,972.656,995.117,-615.234,-1000.000,Default
1614036666.830,-596.191,-509.277,-591.797,328.125,Default
1614036666.834,-1000.000,-1000.000,-419.434,-786.621,Default
1614036666.838,-349.609,-575.684,-603.516,331.055,Default
1614036666.842,979.980,904.297,-696.289,-1000.000,Default
1614036666.846,-135.254,96.680,-594.238,-486.328,Default
1614036666.850,-1000.000,-1000.000,-395.996,-962.891,Default
1614036666.854,-827.637,-906.738,-552.734,869.629,Default
1614036666.858,750.488,668.945,-709.473,-779.297,Default
1614036666.862,728.027,834.473,-594.238,-979.004,Default
1614036666.865,-1000.000,-900.391,-442.871,758.789,Default
1614036666.869,-985.840,-1000.000,-466.309,-994.629,Default
1614036666.873,669.922,589.355,-669.434,-716.797,Default
1614036666.877,989.258,982.422,-626.465,-1000.000,Default
1614036666.881,-642.578,-618.164,-495.605,620.605,Default
1614036666.885,-1000.000,-1000.000,-422.363,-836.426,Default
1614036666.889,304.199,24.414,-655.273,-314.453,Default
1614036666.893,-978.027,-995.605,-653.320,-1000.000,Default
1614036666.897,-494.141,-380.371,-530.762,224.121,Default
1614036666.901,-1000.000,-1000.000,-461.914,-789.062,Default
1614036666.904,-559.570,-690.430,-631.348,520.996,Default
1614036666.908,928.711,852.051,-664.551,-1000.000,Default
1614036666.912,92.285,336.914,-571.777,-681.152,Default
1614036666.916,-1000.000,-1000.000,-431.152,958.496,Default
1614036666.920,-909.668,-934.082,-595.215,952.637,Default
1614036666.924,668.945,666.016,-679.199,-691.406,Default
1614036666.928,815.918,905.273,-533.203,-1000.000,Default
1614036666.932,-926.270,-799.316,-530.762,678.711,Default
1614036666.936,-1000.000,-1000.000,-547.363,-982.422,Default
1614036666.940,612.305,491.699,-638.672,-714.355,Default
1614036666.944,988.281,981.445,-612.793,-1000.000,Default
1614036666.947,-629.395,-606.445,-559.570,579.590,Default
1614036666.951,-1000.000,-1000.000,-422.852,-820.801,Default
1614036666.955,178.223,-142.090,-548.828,-200.684,Default
1614036666.959,-938.477,-987.305,-566.895,-1000.000,Default
1614036666.963,-395.996,-253.906,-565.918,5.859,Default
1614036666.967,-1000.000,-1000.000,-457.520,-835.938,Default
1614036666.971,-660.645,-808.594,-536.133,678.223,Default
1614036666.975,885.254,758.789,-672.363,-927.734,Default
1614036666.979,309.570,592.773,-635.742,-807.129,Default
1614036666.983,-1000.000,-1000.000,-449.707,897.461,Default
1614036666.986,-928.711,-965.332,-538.086,971.680,Default
1614036666.990,657.227,665.039,-696.777,-701.660,Default
1614036666.994,934.082,974.121,-624.023,-1000.000,Default
1614036666.998,-773.438,-681.641,-541.504,657.715,Default
1614036667.002,-1000.000,-1000.000,-439.941,-922.852,Default
1614036667.006,507.812,374.512,-600.586,-574.707,Default
1614036667.010,980.957,983.398,-651.855,-1000.000,Default
1614036667.014,-607.422,-563.477,-550.293,419.922,Default
1614036667.018,-1000.000,-1000.000,-201.660,-791.992,Default
1614036667.022,-137.695,-497.070,-525.391,122.559,Default
1614036667.026,-985.840,921.875,-721.191,-1000.000,Default
1614036667.029,-262.207,-44.922,-576.172,-265.625,Default
1614036667.033,-1000.000,-1000.000,-437.500,-892.578,Default
1614036667.037,-775.879,-878.418,-581.543,776.367,Default
1614036667.041,797.852,685.547,-697.266,-854.980,Default
1614036667.045,678.711,786.621,-562.012,-909.668,Default
1614036667.049,-1000.000,-950.195,-454.102,817.871,Default
1614036667.053,-978.516,-1000.000,-537.109,991.699,Default
1614036667.057,664.551,635.742,-660.645,-710.938,Default
1614036667.061,998.047,984.375,-530.273,-1000.000,Default
1614036667.065,-655.762,-626.953,-506.836,635.742,Default
1614036667.069,-1000.000,-1000.000,-500.488,-868.164,Default
1614036667.072,415.527,140.625,-642.578,-421.875,Default
1614036667.076,974.609,997.559,-663.574,-1000.000,Default
1614036667.080,-593.750,-453.613,-587.891,292.480,Default
1614036667.084,-1000.000,-1000.000,-444.824,-785.156,Default
1614036667.088,-386.230,-649.414,-604.492,354.492,Default
1614036667.092,986.328,871.094,-673.828,-1000.000,Default
1614036667.096,-20.996,218.262,-587.402,-528.809,Default
1614036667.100,-1000.000,-1000.000,-419.922,-978.516,Default
1614036667.104,-890.625,-920.410,-540.039,872.070,Default
1614036667.108,677.246,664.551,-621.094,-770.996,Default
1614036667.111,820.312,877.930,-597.656,-1000.000,Default
1614036667.115,-939.941,-844.238,-531.738,707.520,Default
1614036667.119,-1000.000,-1000.000,-489.746,-986.328,Default
1614036667.123,676.270,541.992,-662.109,-718.262,Default
1614036667.127,987.793,979.004,-640.137,-1000.000,Default
1614036667.131,-642.090,-607.422,-555.664,620.605,Default
1614036667.135,-1000.000,-1000.000,-370.605,-836.426,Default
1614036667.139,292.969,-125.000,-583.984,-297.363,Default
1614036667.143,-965.820,989.746,-686.035,-1000.000,Default
1614036667.147,-471.191,-309.570,-573.242,177.246,Default
1614036667.151,-1000.000,-1000.000,-347.168,-791.992,Default
1614036667.154,-638.184,-754.395,-545.898,576.172,Default
1614036667.158,899.414,805.176,-714.355,-985.352,Default
1614036667.162,304.688,485.352,-603.516,-756.348,Default
1614036667.166,-1000.000,-1000.000,-446.289,917.969,Default
1614036667.170,-933.105,-951.172,-578.613,964.844,Default
1614036667.174,667.969,664.551,-716.797,-697.754,Default
1614036667.178,887.207,951.172,-585.449,-1000.000,Default
1614036667.182,-860.352,-734.863,-494.141,674.316,Default
1614036667.186,-1000.000,-1000.000,-506.836,-952.148,Default
1614036667.190,599.121,431.152,-666.992,-635.254,Default
1614036667.193,779.785,775.879,-609.375,-877.441,Default
1614036667.197,-687.500,-666.992,-519.043,587.402,Default
1614036667.201,-1000.000,-1000.000,-434.082,-838.379,Default
1614036667.205,-109.863,-407.227,-624.512,-36.133,Default
1614036667.209,-977.539,953.613,-657.227,-1000.000,Default
1614036667.213,-284.668,-144.531,-592.773,-104.980,Default
1614036667.217,-1000.000,-1000.000,-471.680,-856.934,Default
1614036667.221,-747.070,-847.168,-600.098,720.215,Default
1614036667.225,824.707,715.820,-645.508,-887.207,Default
1614036667.229,522.461,706.055,-580.078,-882.324,Default
1614036667.233,-1000.000,-1000.000,-494.629,836.914,Default
1614036667.236,-958.008,-994.141,-549.316,987.305,Default
1614036667.240,669.434,654.785,-614.258,-707.520,Default
1614036667.244,940.918,980.957,-553.711,-1000.000,Default
1614036667.248,-746.094,-649.414,-581.055,645.508,Default
1614036667.252,-1000.000,-1000.000,-479.980,-891.113,Default
1614036667.256,454.590,260.742,-563.477,-503.418,Default
1614036667.260,973.145,990.234,-637.207,-1000.000,Default
1614036667.264,-595.215,-516.602,-613.770,381.836,Default
1614036667.268,-1000.000,-1000.000,-451.172,-791.992,Default
1614036667.272,-349.609,-579.590,-615.234,226.074,Default
1614036667.276,979.492,902.344,-690.918,-1000.000,Default
1614036667.279,-135.742,98.145,-603.516,-444.824,Default
1614036667.283,-1000.000,-1000.000,-438.477,-957.520,Default
1614036667.287,-827.637,-906.250,-563.965,852.051,Default
1614036667.291,750.000,669.434,-667.969,-793.945,Default
1614036667.295,728.027,831.543,-613.281,-976.074,Default
1614036667.299,-1000.000,-901.367,-452.637,758.301,Default
1614036667.303,-985.840,-1000.000,-299.805,-995.117,Default
1614036667.307,669.922,584.961,-617.188,-715.332,Default
1614036667.311,988.770,982.422,-668.945,-1000.000,Default
1614036667.315,-641.602,-617.188,-551.758,629.883,Default
1614036667.318,-1000.000,-1000.000,-411.621,-855.957,Default
1614036667.322,298.340,13.184,-620.605,-366.699,Default
1614036667.326,-978.027,-995.605,-676.758,-1000.000,Default
1614036667.330,-493.652,-375.000,-480.957,211.426,Default
1614036667.334,-1000.000,-1000.000,-393.555,-792.969,Default
1614036667.338,-559.570,-705.566,-620.117,512.207,Default
1614036667.342,928.711,839.355,-682.129,-1000.000,Default
1614036667.346,92.285,352.539,-529.297,-697.754,Default
1614036667.350,-1000.000,-1000.000,-419.434,949.707,Default
1614036667.354,-908.203,-935.547,-594.238,956.055,Default
1614036667.358,664.551,665.527,-686.523,-692.871,Default
1614036667.361,835.938,911.621,-545.410,-1000.000,Default
1614036667.365,-905.762,-791.016,-520.508,679.199,Default
1614036667.369,-1000.000,-1000.000,-549.805,-984.863,Default
1614036667.373,607.422,485.840,-642.090,-706.543,Default
1614036667.377,983.887,976.074,-634.766,-1000.000,Default
1614036667.381,-623.047,-599.609,-568.848,547.852,Default
1614036667.385,-1000.000,-1000.000,-414.551,-825.195,Default
1614036667.389,78.613,-260.742,-592.285,-192.383,Default
1614036667.393,-972.168,977.051,-605.469,-1000.000,Default
1614036667.397,-379.883,-222.656,-591.309,-31.250,Default
1614036667.400,-1000.000,-1000.000,-480.957,-840.820,Default
1614036667.404,-658.203,-811.035,-599.121,672.363,Default
1614036667.408,885.254,753.906,-679.199,-937.500,Default
1614036667.412,315.430,604.980,-596.680,-804.688,Default
1614036667.416,-1000.000,-1000.000,-454.102,906.250,Default
1614036667.420,-918.945,-957.031,-520.020,961.914,Default
1614036667.424,657.227,667.480,-652.832,-703.125,Default
1614036667.428,744.141,777.832,-595.703,-844.727,Default
1614036667.432,-842.285,-754.395,-525.879,731.934,Default
1614036667.436,-1000.000,-1000.000,-403.809,-953.125,Default
1614036667.440,492.188,348.633,-604.492,-547.852,Default
1614036667.443,986.816,992.188,-690.918,-1000.000,Default
1614036667.447,-607.422,-556.152,-586.914,407.227,Default
1614036667.451,-1000.000,-1000.000,-340.820,-791.992,Default
1614036667.455,-138.184,-507.324,-585.449,107.422,Default
1614036667.459,-980.957,925.781,-709.473,-1000.000,Default
1614036667.463,-270.508,-33.203,-587.891,-257.324,Default
1614036667.467,-1000.000,-1000.000,-451.660,-895.508,Default
1614036667.471,-702.637,-783.691,-583.496,675.781,Default
1614036667.475,803.223,716.309,-676.758,-885.742,Default
1614036667.479,673.828,769.043,-598.633,-907.227,Default
1614036667.483,-1000.000,-940.918,-355.957,794.922,Default
1614036667.486,-982.422,-1000.000,-429.688,998.047,Default
1614036667.490,674.316,633.789,-699.219,-721.191,Default
1614036667.494,986.816,979.492,-617.676,-1000.000,Default
1614036667.498,-657.227,-628.906,-567.383,636.230,Default
1614036667.502,-1000.000,-1000.000,-497.559,938.965,Default
1614036667.506,491.211,181.152,-627.441,-491.211,Default
1614036667.510,939.941,980.957,-606.934,-1000.000,Default
1614036667.514,-577.148,-435.059,-555.664,275.391,Default
1614036667.518,-1000.000,-1000.000,-451.660,-780.273,Default
1614036667.522,-414.062,-655.273,-604.980,371.582,Default
1614036667.525,978.516,868.164,-606.934,-1000.000,Default
1614036667.529,4.395,233.887,-541.992,-552.734,Default
1614036667.533,-1000.000,-1000.000,-458.008,-988.281,Default
1614036667.537,-904.785,-921.875,-589.355,882.324,Default
1614036667.541,663.086,664.062,-642.578,-758.789,Default
1614036667.545,822.266,882.812,-583.496,-1000.000,Default
1614036667.549,-939.941,-836.914,-533.691,691.406,Default
1614036667.553,-1000.000,-1000.000,-502.930,-982.910,Default
1614036667.557,681.152,533.691,-652.344,-724.121,Default
1614036667.561,980.469,978.516,-638.672,-1000.000,Default
1614036667.565,-638.184,-606.445,-588.379,616.699,Default
1614036667.568,-1000.000,-1000.000,-426.758,-936.035,Default
1614036667.572,275.879,-147.949,-565.918,-301.270,Default
1614036667.576,-962.402,993.652,-660.156,-1000.000,Default
1614036667.580,-414.062,-282.715,-604.492,59.082,Default
1614036667.584,-1000.000,-1000.000,-421.875,-811.523,Default
1614036667.588,-627.930,-763.672,-583.008,588.379,Default
1614036667.592,908.691,800.781,-698.242,-987.305,Default
1614036667.596,302.734,540.039,-622.070,-790.039,Default
1614036667.600,-1000.000,-1000.000,-390.625,891.113,Default
1614036667.604,-933.105,-959.473,-390.625,973.145,Default
1614036667.607,668.945,667.969,-668.945,-701.172,Default
1614036667.611,884.277,952.637,-631.348,-1000.000,Default
1614036667.615,-844.238,-716.797,-489.746,660.645,Default
1614036667.619,-1000.000,-1000.000,-451.172,-930.176,Default
1614036667.623,562.012,409.180,-659.668,-601.074,Default
1614036667.627,976.562,972.168,-643.066,-1000.000,Default
1614036667.631,-608.398,-589.844,-500.977,458.984,Default
1614036667.635,-1000.000,-1000.000,-434.570,-798.340,Default
1614036667.639,-137.695,-411.133,-652.344,87.891,Default
1614036667.643,-986.328,948.730,-654.785,-1000.000,Default
1614036667.647,-260.254,-107.422,-575.684,-260.742,Default
1614036667.650,-1000.000,-1000.000,-476.074,-895.020,Default
1614036667.654,-747.070,-859.375,-628.906,777.832,Default
1614036667.658,825.195,705.566,-672.363,-858.398,Default
1614036667.662,522.949,734.863,-498.047,-896.973,Default
1614036667.666,-1000.000,-984.863,-455.566,831.543,Default
1614036667.670,-955.566,-1000.000,-602.539,988.770,Default
1614036667.674,663.086,648.438,-660.156,-709.961,Default
1614036667.678,965.332,983.887,-588.867,-1000.000,Default
1614036667.682,-705.078,-641.602,-589.355,634.766,Default
1614036667.686,-1000.000,-1000.000,-510.254,-865.234,Default
1614036667.690,420.898,229.492,-615.234,-416.504,Default
1614036667.693,974.609,999.023,-616.211,-1000.000,Default
1614036667.697,-593.750,-490.723,-586.426,290.527,Default
1614036667.701,-1000.000,-1000.000,-464.355,-782.715,Default
1614036667.705,-349.609,-604.492,-567.871,373.047,Default
1614036667.709,979.980,892.578,-629.395,-1000.000,Default
1614036667.713,-135.742,138.672,-594.727,-491.699,Default
1614036667.717,-1000.000,-1000.000,-470.215,-962.402,Default
1614036667.721,-827.148,-912.598,-524.414,876.465,Default
1614036667.725,747.070,665.527,-648.926,-758.301,Default
1614036667.729,746.582,849.121,-628.418,-1000.000,Default
1614036667.732,-987.305,-882.812,-508.789,725.586,Default
1614036667.736,-989.746,-1000.000,-500.488,-988.770,Default
1614036667.740,671.387,573.730,-655.273,-718.262,Default
1614036667.744,988.770,980.957,-632.324,-1000.000,Default
1614036667.748,-641.602,-614.746,-553.711,617.188,Default
1614036667.752,-1000.000,-1000.000,-424.805,-829.590,Default
1614036667.756,297.852,-28.809,-599.121,-278.320,Default
1614036667.760,-978.027,-996.582,-634.277,-1000.000,Default
1614036667.764,-494.629,-350.586,-551.758,176.270,Default
1614036667.768,-1000.000,-1000.000,-266.602,-791.016,Default
1614036667.772,-569.824,-725.098,-525.879,576.172,Default
1614036667.775,938.965,829.590,-720.215,-985.352,Default
1614036667.779,215.332,435.547,-574.219,-758.301,Default
1614036667.783,-1000.000,-1000.000,-437.012,916.992,Default
1614036667.787,-922.852,-945.312,-575.684,965.820,Default
1614036667.791,662.598,663.086,-706.543,-698.242,Default
1614036667.795,888.672,943.848,-567.383,-1000.000,Default
1614036667.799,-851.074,-746.582,-514.648,661.621,Default
1614036667.803,-1000.000,-1000.000,-525.879,-932.129,Default
1614036667.807,595.703,470.703,-643.066,-618.164,Default
1614036667.811,985.352,974.121,-555.176,-1000.000,Default
1614036667.814,-623.047,-595.703,-547.852,511.719,Default
1614036667.818,-1000.000,-1000.000,-490.723,-802.734,Default
1614036667.822,78.613,-322.754,-621.582,-53.711,Default
1614036667.826,-972.656,962.891,-618.164,-1000.000,Default
1614036667.830,-382.812,-194.824,-576.660,-82.520,Default
1614036667.834,-1000.000,-1000.000,-491.699,-851.074,Default
1614036667.838,-707.520,-824.219,-610.840,720.215,Default
1614036667.842,854.004,738.770,-681.641,-885.742,Default
1614036667.846,475.586,653.320,-603.516,-872.070,Default
1614036667.850,-1000.000,-1000.000,-470.703,847.168,Default
1614036667.854,-952.148,-974.609,-542.969,984.863,Default
1614036667.857,665.039,667.969,-604.492,-707.031,Default
1614036667.861,946.777,979.004,-600.586,-1000.000,Default
1614036667.865,-765.625,-674.316,-594.238,654.785,Default
1614036667.869,-1000.000,-1000.000,-477.539,-900.391,Default
1614036667.873,510.254,329.102,-633.301,-506.348,Default
1614036667.877,784.668,794.434,-644.531,-926.270,Default
1614036667.881,-684.570,-615.234,-563.477,469.238,Default
1614036667.885,-1000.000,-1000.000,-394.531,-825.684,Default
1614036667.889,-179.199,-548.340,-595.703,205.078,Default
1614036667.893,-956.543,924.805,-682.617,-1000.000,Default
1614036667.897,-181.152,40.039,-578.613,-413.086,Default
1614036667.900,-1000.000,-1000.000,-349.121,-951.660,Default
1614036667.904,-831.055,-894.531,-454.102,849.609,Default
1614036667.908,749.512,678.223,-690.918,-791.992,Default
1614036667.912,728.027,812.500,-618.164,-975.098,Default
1614036667.916,-1000.000,-926.270,-488.770,759.766,Default
1614036667.920,-985.840,-1000.000,-573.242,-995.117,Default
1614036667.924,667.480,615.234,-700.195,-714.355,Default
1614036667.928,997.070,984.375,-613.281,-1000.000,Default
1614036667.932,-656.738,-624.023,-578.613,631.348,Default
1614036667.936,-1000.000,-1000.000,-474.609,-857.910,Default
1614036667.939,405.273,98.145,-618.652,-389.160,Default
1614036667.943,-998.535,-992.188,-633.789,-1000.000,Default
1614036667.947,-540.039,-415.527,-486.816,262.207,Default
1614036667.951,-1000.000,-1000.000,-409.180,-785.645,Default
1614036667.955,-508.301,-667.969,-644.531,378.418,Default
1614036667.959,946.289,862.793,-674.805,-1000.000,Default
1614036667.963,60.547,263.672,-596.680,-565.918,Default
1614036667.967,-1000.000,-1000.000,-454.590,998.047,Default
1614036667.971,-907.715,-924.805,-575.195,909.668,Default
1614036667.975,666.016,663.574,-660.156,-722.656,Default
1614036667.979,821.777,894.043,-581.055,-1000.000,Default
1614036667.982,-939.941,-820.312,-540.527,676.758,Default
1614036667.986,-1000.000,-1000.000,-528.320,-980.469,Default
1614036667.990,676.758,520.020,-617.188,-719.238,Default
1614036667.994,984.863,978.516,-604.004,-1000.000,Default
1614036667.998,-638.672,-605.957,-576.660,619.141,Default
1614036668.002,-1000.000,-1000.000,-430.664,-838.867,Default
1614036668.006,229.980,-167.480,-541.992,-263.184,Default
1614036668.010,-940.918,996.582,-640.137,-1000.000,Default
1614036668.014,-397.949,-261.230,-617.676,30.273,Default
1614036668.018,-1000.000,-1000.000,-450.195,-821.777,Default
1614036668.021,-641.113,-769.043,-596.191,593.262,Default
1614036668.025,905.273,802.246,-692.383,-995.117,Default
1614036668.029,299.316,536.621,-618.652,-783.203,Default
1614036668.033,-1000.000,-1000.000,-451.172,889.160,Default
1614036668.037,-833.496,-859.863,-551.270,873.535,Default
1614036668.041,703.613,700.195,-678.711,-734.863,Default
1614036668.045,866.699,941.895,-629.395,-1000.000,Default
1614036668.049,-832.520,-700.684,-507.324,653.809,Default
1614036668.053,-1000.000,-1000.000,-295.410,-929.199,Default
1614036668.057,543.457,403.809,-593.750,-612.793,Default
1614036668.061,978.027,973.633,-696.289,-1000.000,Default
1614036668.064,-607.910,-584.961,-527.344,490.723,Default
1614036668.068,-1000.000,-1000.000,-286.621,-804.688,Default
1614036668.072,-137.695,-428.711,-589.355,21.484,Default
1614036668.076,-986.328,945.312,-699.707,-1000.000,Default
1614036668.080,-260.254,-91.309,-559.570,-230.469,Default
1614036668.084,-1000.000,-1000.000,-405.273,-886.230,Default
1614036668.088,-747.070,-861.816,-568.848,741.211,Default
1614036668.092,825.195,704.590,-687.988,-888.184,Default
1614036668.096,522.461,745.605,-518.066,-889.648,Default
1614036668.100,-1000.000,-978.027,-448.242,829.590,Default
1614036668.104,-955.078,-1000.000,-599.121,989.258,Default
1614036668.107,661.133,646.973,-692.383,-709.473,Default
1614036668.111,971.680,983.398,-618.164,-1000.000,Default
1614036668.115,-694.336,-639.160,-562.012,638.672,Default
1614036668.119,-1000.000,-1000.000,-497.559,-875.000,Default
1614036668.123,414.551,214.355,-634.766,-451.172,Default
1614036668.127,975.586,994.629,-632.324,-1000.000,Default
1614036668.131,-593.262,-492.188,-566.406,329.102,Default
1614036668.135,-1000.000,-1000.000,-397.461,-786.621,Default
1614036668.139,-349.609,-611.816,-574.707,334.961,Default
1614036668.143,979.492,887.207,-618.164,-1000.000,Default
1614036668.146,-135.742,141.113,-584.473,-486.816,Default
1614036668.150,-1000.000,-1000.000,-469.238,-962.891,Default
1614036668.154,-830.566,-912.598,-582.031,869.629,Default
1614036668.158,741.211,665.039,-685.547,-779.297,Default
1614036668.162,757.812,851.074,-592.285,-979.492,Default
1614036668.166,-979.492,-879.395,-511.230,758.301,Default
1614036668.170,-992.188,-1000.000,-481.934,-994.629,Default
1614036668.174,672.363,568.848,-625.000,-716.309,Default
1614036668.178,988.770,980.469,-622.070,-1000.000,Default
1614036668.182,-641.602,-613.281,-566.406,623.047,Default
1614036668.186,-1000.000,-1000.000,-368.164,-842.285,Default
1614036668.189,297.852,-42.480,-541.992,-314.453,Default
1614036668.193,-978.027,998.047,-699.707,-1000.000,Default
1614036668.197,-493.652,-351.074,-607.422,178.223,Default
1614036668.201,-1000.000,-1000.000,-403.320,-791.992,Default
1614036668.205,-561.523,-726.562,-602.051,577.637,Default
1614036668.209,930.664,824.707,-698.242,-993.652,Default
1614036668.213,113.281,399.902,-592.285,-709.473,Default
1614036668.217,-1000.000,-1000.000,-452.148,959.961,Default
1614036668.221,-902.344,-934.082,-577.637,948.730,Default
1614036668.225,653.809,661.133,-686.035,-692.383,Default
1614036668.228,787.598,834.473,-582.031,-947.754,Default
1614036668.232,-888.184,-791.992,-411.621,701.660,Default
1614036668.236,-1000.000,-1000.000,-426.758,-966.309,Default
1614036668.240,587.891,457.520,-678.711,-641.602,Default
1614036668.244,988.281,977.051,-632.812,-1000.000,Default
1614036668.248,-623.047,-595.703,-579.590,518.555,Default
1614036668.252,-1000.000,-1000.000,-434.082,-802.734,Default
1614036668.256,78.613,-325.195,-608.887,-56.641,Default
1614036668.260,-972.656,960.938,-654.297,-1000.000,Default
1614036668.264,-383.301,-195.801,-568.848,-47.852,Default
1614036668.268,-1000.000,-1000.000,-466.797,-833.008,Default
1614036668.271,-713.379,-827.637,-595.215,676.270,Default
1614036668.275,852.051,734.863,-621.094,-921.875,Default
1614036668.279,515.137,683.594,-567.383,-864.746,Default
1614036668.283,-1000.000,-1000.000,-491.699,835.938,Default
1614036668.287,-958.496,-983.398,-563.965,886.719,Default
1614036668.291,667.969,664.551,-660.156,-741.211,Default
1614036668.295,945.801,979.492,-609.375,-1000.000,Default
1614036668.299,-756.348,-657.715,-586.914,638.184,Default
1614036668.303,-1000.000,-1000.000,-488.281,-888.672,Default
1614036668.307,509.277,300.781,-622.559,-501.953,Default
1614036668.311,974.609,987.793,-651.367,-1000.000,Default
1614036668.314,-602.051,-534.668,-591.797,373.047,Default
1614036668.318,-1000.000,-1000.000,-401.855,-791.992,Default
1614036668.322,-280.273,-552.734,-525.879,236.816,Default
1614036668.326,-996.094,912.109,-661.133,-1000.000,Default
1614036668.330,-146.484,63.965,-615.234,-459.961,Default
1614036668.334,-1000.000,-1000.000,-438.477,-962.402,Default
1614036668.338,-829.102,-899.902,-583.496,855.469,Default
1614036668.342,750.000,672.363,-691.895,-793.457,Default
1614036668.346,728.027,826.172,-612.305,-976.074,Default
1614036668.350,-1000.000,-911.133,-445.312,758.301,Default
1614036668.353,-985.840,-1000.000,-422.363,-994.629,Default
1614036668.357,668.945,604.004,-655.762,-715.820,Default
1614036668.361,992.188,982.422,-641.602,-1000.000,Default
1614036668.365,-647.461,-620.117,-483.398,624.512,Default
1614036668.369,-1000.000,-1000.000,-235.840,-844.727,Default
1614036668.373,338.379,47.852,-582.520,-331.543,Default
1614036668.377,-985.352,-993.652,-687.500,-1000.000,Default
1614036668.381,-508.301,-391.113,-528.320,203.125,Default
1614036668.385,-1000.000,-1000.000,-450.684,-791.992,Default
1614036668.389,-559.570,-686.035,-629.395,548.340,Default
1614036668.393,928.711,855.469,-669.434,-1000.000,Default
1614036668.396,92.285,336.914,-591.797,-704.102,Default
1614036668.400,-1000.000,-1000.000,-474.121,952.637,Default
1614036668.404,-909.180,-934.570,-601.562,955.566,Default
1614036668.408,668.457,666.016,-665.039,-693.359,Default
1614036668.412,819.336,905.762,-559.082,-1000.000,Default
1614036668.416,-934.082,-801.270,-525.391,675.293,Default
1614036668.420,-1000.000,-1000.000,-556.152,-973.145,Default
1614036668.424,650.879,500.000,-639.648,-691.895,Default
1614036668.428,978.516,977.539,-527.832,-1000.000,Default
1614036668.432,-623.047,-602.539,-564.941,545.898,Default
1614036668.435,-1000.000,-1000.000,-480.469,-812.988,Default
1614036668.439,78.613,-209.961,-603.027,-101.562,Default
1614036668.443,-966.797,992.676,-638.184,-1000.000,Default
1614036668.447,-386.230,-252.441,-585.449,-36.133,Default
1614036668.451,-1000.000,-1000.000,-468.262,-831.543,Default
1614036668.455,-551.758,-677.734,-562.500,569.336,Default
1614036668.459,917.480,814.941,-635.254,-965.820,Default
1614036668.463,194.336,455.566,-579.102,-689.941,Default
1614036668.467,-1000.000,-1000.000,-430.176,923.340,Default
1614036668.471,-917.480,-949.707,-481.934,958.496,Default
1614036668.475,655.273,657.715,-634.277,-692.871,Default
1614036668.478,911.621,971.191,-622.070,-1000.000,Default
1614036668.482,-811.523,-693.359,-546.875,663.086,Default
1614036668.486,-1000.000,-1000.000,-469.727,-936.523,Default
1614036668.490,544.434,392.578,-644.531,-601.074,Default
1614036668.494,978.027,984.375,-657.715,-1000.000,Default
1614036668.498,-607.910,-566.895,-554.199,429.688,Default
1614036668.502,-1000.000,-1000.000,-381.348,-800.293,Default
1614036668.506,-138.184,-452.148,-581.055,41.504,Default
1614036668.510,-980.957,943.848,-679.688,-1000.000,Default
1614036668.514,-266.602,-78.613,-559.082,-248.047,Default
1614036668.517,-1000.000,-1000.000,-293.945,-899.414,Default
1614036668.521,-647.949,-770.508,-534.668,673.828,Default
1614036668.525,858.887,730.469,-699.219,-896.973,Default
1614036668.529,522.949,736.328,-577.148,-879.395,Default
1614036668.533,-1000.000,-965.820,-463.379,823.242,Default
1614036668.537,-958.496,-1000.000,-527.832,991.699,Default
1614036668.541,656.250,640.625,-686.523,-714.844,Default
1614036668.545,992.676,986.816,-593.262,-1000.000,Default
1614036668.549,-666.992,-631.348,-540.039,635.254,Default
1614036668.553,-1000.000,-1000.000,-453.613,-971.191,Default
1614036668.557,415.039,190.918,-624.512,-466.309,Default
1614036668.560,975.586,998.535,-590.332,-1000.000,Default
1614036668.564,-593.750,-476.562,-553.711,291.992,Default
1614036668.568,-1000.000,-1000.000,-503.906,-782.715,Default
1614036668.572,-349.609,-631.836,-628.906,322.754,Default
1614036668.576,979.980,880.371,-688.477,-1000.000,Default
1614036668.580,-134.277,181.152,-607.422,-484.375,Default
1614036668.584,-1000.000,-1000.000,-435.059,-963.379,Default
1614036668.588,-836.914,-916.016,-569.336,866.211,Default
1614036668.592,724.609,662.598,-667.969,-769.043,Default
1614036668.596,803.223,873.047,-601.074,-1000.000,Default
1614036668.600,-946.289,-854.492,-493.652,712.891,Default
1614036668.603,-1000.000,-1000.000,-462.891,-987.305,Default
1614036668.607,675.781,559.570,-571.777,-717.773,Default
1614036668.611,987.793,979.004,-620.605,-1000.000,Default
1614036668.615,-641.602,-609.863,-603.516,620.605,Default
1614036668.619,-1000.000,-1000.000,-417.969,-837.402,Default
1614036668.623,297.852,-89.355,-609.863,-301.270,Default
1614036668.627,-973.633,992.676,-666.016,-1000.000,Default
1614036668.631,-501.953,-329.102,-583.496,184.082,Default
1614036668.635,-1000.000,-1000.000,-406.738,-793.945,Default
1614036668.639,-495.605,-740.234,-566.895,477.051,Default
1614036668.642,955.078,815.430,-676.758,-1000.000,Default
1614036668.646,214.844,440.918,-603.516,-725.586,Default
1614036668.650,-1000.000,-1000.000,-349.609,921.875,Default
1614036668.654,-926.758,-945.312,-382.812,964.844,Default
1614036668.658,663.086,664.062,-677.246,-696.289,Default
1614036668.662,888.672,940.918,-627.930,-1000.000,Default
1614036668.666,-851.074,-745.117,-534.180,668.457,Default
1614036668.670,-1000.000,-1000.000,-535.645,-952.637,Default
1614036668.674,595.703,452.148,-675.293,-649.902,Default
1614036668.678,985.352,973.633,-634.766,-1000.000,Default
1614036668.682,-624.512,-594.238,-583.008,514.160,Default
1614036668.685,-1000.000,-1000.000,-444.336,-803.223,Default
1614036668.689,68.359,-350.098,-618.652,-85.938,Default
1614036668.693,-947.754,959.961,-646.973,-1000.000,Default
1614036668.697,-326.660,-170.898,-511.230,6.348,Default
1614036668.701,-1000.000,-1000.000,-433.105,-814.453,Default
1614036668.705,-739.746,-837.402,-624.512,667.969,Default
1614036668.709,832.520,725.586,-680.176,-913.574,Default
1614036668.713,520.508,685.547,-585.449,-866.699,Default
1614036668.717,-1000.000,-1000.000,-478.516,843.750,Default
1614036668.721,-958.496,-986.328,-572.266,984.863,Default
1614036668.724,667.969,660.156,-668.457,-706.543,Default
1614036668.728,945.801,980.469,-594.727,-1000.000,Default
1614036668.732,-756.348,-656.738,-576.172,647.461,Default
1614036668.736,-1000.000,-1000.000,-488.281,-895.996,Default
1614036668.740,509.277,295.898,-602.539,-518.066,Default
1614036668.744,974.121,988.770,-628.418,-1000.000,Default
1614036668.748,-600.586,-530.762,-600.586,398.438,Default
1614036668.752,-1000.000,-1000.000,-451.660,-791.504,Default
1614036668.756,-295.410,-560.059,-535.645,168.457,Default
1614036668.760,998.047,906.738,-637.695,-1000.000,Default
1614036668.764,-145.020,55.176,-619.141,-379.395,Default
1614036668.767,-1000.000,-1000.000,-445.801,-941.406,Default
1614036668.771,-829.102,-899.414,-541.992,841.797,Default
1614036668.775,750.000,671.387,-681.152,-791.992,Default
1614036668.779,728.027,821.777,-624.023,-977.051,Default
1614036668.783,-1000.000,-913.574,-479.492,757.812,Default
1614036668.787,-985.840,-1000.000,-469.727,-994.629,Default
1614036668.791,669.922,597.168,-654.297,-714.844,Default
1614036668.795,990.234,981.934,-659.180,-1000.000,Default
1614036668.799,-644.043,-618.652,-538.574,631.348,Default
1614036668.803,-1000.000,-1000.000,-278.320,-858.887,Default
1614036668.807,313.477,31.738,-595.703,-375.000,Default
1614036668.810,-979.492,-997.070,-702.148,-1000.000,Default
