timestamps,TP9,AF7,AF8,TP10,Marker0
-0.013,649.902,283.203,-526.367,-395.020,0
-0.009,-940.918,963.867,-599.609,-1000.000,0
-0.005,-580.078,-576.172,-643.555,385.254,0
-0.001,-1000.000,-1000.000,-480.469,-774.902,0
0.002,324.707,-541.992,-508.301,356.445,0
0.006,-818.848,869.629,-585.938,-1000.000,0
0.010,-15.625,-145.996,-636.230,-292.480,0
0.014,-1000.000,-1000.000,-452.148,-905.273,0
0.018,-581.055,-880.859,-523.438,888.184,0
0.022,979.980,674.316,-619.141,-727.539,0
0.026,779.297,676.758,-630.371,-916.504,0
0.030,-882.324,-1000.000,-538.086,834.961,0
0.034,-915.039,-918.457,-391.113,890.625,0
0.038,703.125,644.043,-542.969,-747.559,0
0.042,-998.047,963.867,-644.043,-1000.000,0
0.045,-706.055,-631.348,-546.875,605.957,0
0.049,-1000.000,-1000.000,-266.113,-818.359,0
0.053,651.367,202.637,-500.488,-296.875,0
0.057,-911.621,979.004,-641.602,-1000.000,0
0.061,-463.379,-537.109,-590.332,287.598,0
0.065,-1000.000,-1000.000,-447.266,-781.738,0
0.069,117.676,-651.855,-570.312,568.848,0
0.073,-823.242,833.496,-645.996,-986.328,0
0.077,200.684,29.785,-574.707,-520.996,0
0.081,-1000.000,-1000.000,-442.871,-953.125,0
0.085,-725.098,-888.184,-568.848,917.480,0
0.088,889.648,669.434,-625.000,-699.707,0
0.092,685.059,596.680,-548.828,-789.551,0
0.096,-897.461,-998.535,-539.551,817.871,0
0.100,-995.117,-1000.000,-534.668,-970.703,0
0.104,659.668,513.672,-590.332,-616.211,0
0.108,-983.398,985.840,-534.180,-1000.000,0
0.112,-698.242,-604.980,-598.633,596.191,0
0.116,-1000.000,-1000.000,-499.512,-798.828,0
0.120,547.852,-104.492,-550.293,-77.637,0
0.124,-868.652,941.895,-625.000,-1000.000,0
0.127,-354.004,-411.133,-645.020,153.809,0
0.131,-1000.000,-1000.000,-476.562,-790.527,0
0.135,-48.340,-738.770,-543.945,659.180,0
0.139,-846.191,787.598,-616.699,-927.734,0
0.143,412.109,250.000,-610.352,-728.027,0
0.147,-1000.000,-1000.000,-477.539,960.938,0
0.151,-827.148,-921.875,-501.465,953.613,0
0.155,828.125,670.410,-586.914,-696.777,0
0.159,942.871,858.887,-612.793,-1000.000,0
0.163,-768.066,-836.914,-626.465,641.602,0
0.167,-1000.000,-1000.000,-465.820,-877.441,0
0.170,680.176,441.895,-479.492,-535.645,0
0.174,-995.605,973.633,-624.023,-1000.000,0
0.178,-682.617,-590.820,-645.508,545.410,0
0.182,-1000.000,-1000.000,-395.020,-786.621,0
0.186,440.430,-326.172,-547.363,141.113,0
0.190,-837.402,915.527,-650.391,-1000.000,0
0.194,-238.770,-292.969,-610.352,-59.082,0
0.198,-1000.000,-1000.000,-373.047,-832.031,0
0.202,-237.305,-817.871,-493.164,753.418,0
0.206,-893.555,725.098,-651.367,-855.957,0
0.210,621.582,456.543,-604.492,-824.707,0
0.213,-979.004,-1000.000,-481.445,902.832,0
0.217,-918.945,-946.777,-555.176,971.191,0
0.221,756.836,670.410,-642.578,-706.055,0
0.225,-997.070,919.434,-587.402,-1000.000,0
0.229,-708.984,-744.141,-594.238,625.977,0
0.233,-1000.000,-1000.000,-489.746,-842.285,0
0.237,665.527,345.703,-563.965,-423.828,0
0.241,-946.289,966.797,-593.750,-1000.000,0
0.245,-580.078,-581.055,-523.926,450.195,0
0.249,-1000.000,-1000.000,-427.734,-777.832,0
0.252,324.707,-505.371,-579.102,352.539,0
0.256,-813.477,879.883,-602.539,-1000.000,0
0.260,-20.996,-175.781,-621.582,-262.695,0
0.264,-1000.000,-1000.000,-486.816,-882.324,0
0.268,-458.496,-872.070,-533.691,837.891,0
0.272,-962.891,677.246,-565.430,-779.297,0
0.276,727.051,654.785,-590.820,-913.574,0
0.280,-913.086,-1000.000,-556.641,835.449,0
0.284,-996.582,-1000.000,-558.594,989.258,0
0.288,683.105,625.000,-540.527,-713.379,0
0.292,-984.375,970.703,-550.781,-1000.000,0
0.295,-713.867,-649.414,-649.902,612.305,0
0.299,-1000.000,-1000.000,-471.680,-815.918,0
0.303,650.391,178.223,-478.027,-307.617,0
0.307,-905.762,950.195,-602.539,-1000.000,0
0.311,-472.656,-544.922,-639.648,346.680,0
0.315,-1000.000,-1000.000,-461.914,-780.762,0
0.319,207.031,-622.070,-554.199,557.617,0
0.323,-803.223,846.191,-629.883,-987.793,0
0.327,191.895,-17.090,-623.535,-489.746,0
0.331,-1000.000,-1000.000,-420.410,-953.125,0
0.335,-662.598,-894.043,-457.031,922.852,0
0.338,955.078,667.969,-605.957,-695.312,0
0.342,830.078,778.320,-613.770,-988.281,0
0.346,-853.027,-939.941,-551.758,747.070,0
0.350,-1000.000,-1000.000,-536.133,-951.172,0
0.354,673.340,546.387,-617.188,-653.809,0
0.358,-989.258,982.422,-610.352,-1000.000,0
0.362,-698.242,-608.887,-575.684,594.727,0
0.366,-1000.000,-1000.000,-436.035,-794.434,0
0.370,547.363,-34.180,-567.383,-86.914,0
0.374,-861.328,948.730,-621.094,-1000.000,0
0.377,-363.281,-458.984,-538.086,221.191,0
0.381,-1000.000,-1000.000,-390.137,-791.016,0
0.385,88.867,-609.863,-557.129,553.223,0
0.389,-801.270,838.379,-602.051,-960.938,0
0.393,393.555,163.574,-524.414,-711.426,0
0.397,-1000.000,-1000.000,-461.426,953.125,0
0.401,-771.484,-916.504,-578.613,956.055,0
0.405,887.695,668.457,-592.285,-697.266,0
0.409,915.039,845.215,-588.379,-1000.000,0
0.413,-782.715,-857.422,-620.605,642.090,0
0.417,-1000.000,-1000.000,-552.734,-878.418,0
0.420,679.199,463.867,-573.242,-534.668,0
0.424,-996.094,976.074,-572.266,-1000.000,0
0.428,-682.617,-594.727,-611.328,540.039,0
0.432,-1000.000,-1000.000,-450.195,-787.109,0
0.436,440.430,-246.582,-528.320,142.578,0
0.440,-836.914,930.664,-604.492,-1000.000,0
0.444,-239.258,-333.496,-631.836,-68.848,0
0.448,-1000.000,-1000.000,-490.234,-844.238,0
0.452,-224.121,-790.527,-498.047,793.945,0
0.456,-889.160,750.000,-496.094,-814.453,0
0.460,623.047,393.555,-610.840,-833.496,0
0.463,-989.746,-1000.000,-551.758,904.785,0
0.467,-871.094,-938.477,-551.270,971.680,0
0.471,809.570,668.945,-602.539,-706.055,0
0.475,992.188,907.715,-582.520,-1000.000,0
0.479,-706.055,-766.113,-601.562,627.930,0
0.483,-1000.000,-1000.000,-440.918,-848.145,0
0.487,668.457,374.023,-540.527,-411.133,0
0.491,-954.590,968.262,-628.906,-1000.000,0
0.495,-601.074,-582.520,-589.844,384.766,0
0.499,-1000.000,-1000.000,-296.387,-774.902,0
0.502,351.562,-458.984,-495.117,356.934,0
0.506,-813.965,893.066,-620.117,-1000.000,0
0.510,-22.949,-211.426,-598.145,-291.992,0
0.514,-1000.000,-1000.000,-482.910,-907.227,0
0.518,-442.383,-860.352,-550.293,894.531,0
0.522,-957.031,685.059,-598.145,-713.379,0
0.526,729.492,585.938,-585.938,-924.316,0
0.530,-926.758,-1000.000,-453.125,836.914,0
0.534,-945.801,-981.934,-541.992,990.723,0
0.538,749.512,640.137,-648.438,-713.379,0
0.542,-995.117,960.938,-565.430,-1000.000,0
0.545,-709.961,-669.434,-640.625,614.258,0
0.549,-1000.000,-1000.000,-564.453,-821.777,0
0.553,667.969,226.562,-567.871,-294.434,0
0.557,-952.148,945.312,-549.316,-1000.000,0
0.561,-561.523,-568.848,-612.793,276.367,0
0.565,-1000.000,-1000.000,-473.633,-788.574,0
0.569,209.473,-589.355,-527.832,611.816,0
0.573,-807.617,859.375,-514.160,-954.102,0
0.577,181.152,-74.219,-585.938,-530.273,0
0.581,-1000.000,-1000.000,-529.785,-958.984,0
0.585,-654.785,-888.672,-540.527,923.828,0
0.588,959.473,666.992,-597.656,-687.988,0
0.592,829.102,750.488,-612.793,-1000.000,0
0.596,-852.539,-964.355,-596.191,696.777,0
0.600,-1000.000,-1000.000,-569.824,-929.688,0
0.604,672.852,573.730,-581.055,-633.789,0
0.608,-986.816,982.910,-574.219,-1000.000,0
0.612,-701.660,-612.793,-628.418,591.309,0
0.616,-1000.000,-1000.000,-445.312,-793.457,0
0.620,594.727,19.043,-440.918,-14.648,0
0.624,-911.621,937.988,-558.594,-1000.000,0
0.627,-453.125,-488.281,-648.926,147.461,0
0.631,-1000.000,-1000.000,-457.031,-796.387,0
0.635,-3.906,-681.152,-537.598,707.031,0
0.639,-840.820,821.289,-628.906,-882.324,0
0.643,368.164,116.699,-628.418,-738.770,0
0.647,-1000.000,-1000.000,-467.285,964.355,0
0.651,-754.883,-906.738,-544.434,953.125,0
0.655,891.113,666.992,-632.812,-697.266,0
0.659,914.062,831.543,-592.285,-1000.000,0
0.663,-782.227,-876.953,-594.238,642.578,0
0.667,-1000.000,-1000.000,-541.992,-881.836,0
0.670,677.734,488.281,-595.215,-524.414,0
0.674,-989.746,977.539,-594.238,-1000.000,0
0.678,-694.336,-597.656,-555.176,492.676,0
0.682,-1000.000,-1000.000,-426.758,-780.762,0
0.686,530.762,-198.242,-561.035,142.578,0
0.690,-876.465,928.223,-580.078,-1000.000,0
0.694,-340.332,-373.047,-604.980,-67.871,0
0.698,-1000.000,-1000.000,-520.020,-848.145,0
0.702,-216.309,-768.555,-563.965,809.570,0
0.706,-893.555,766.602,-567.383,-796.875,0
0.710,588.867,334.473,-579.102,-836.914,0
0.713,-1000.000,-1000.000,-494.141,905.762,0
0.717,-854.980,-930.664,-567.871,971.680,0
0.721,817.383,667.480,-576.172,-706.055,0
0.725,990.723,896.973,-488.281,-1000.000,0
0.729,-704.102,-785.156,-628.906,627.930,0
0.733,-1000.000,-1000.000,-568.359,-847.656,0
0.737,683.105,400.879,-525.879,-411.133,0
0.741,-999.512,970.215,-564.453,-1000.000,0
0.745,-672.363,-585.449,-638.672,384.766,0
0.749,-1000.000,-1000.000,-482.422,-774.414,0
0.752,383.301,-410.156,-494.629,356.934,0
0.756,-845.215,898.438,-563.477,-1000.000,0
0.760,-224.609,-250.977,-636.719,-295.410,0
0.764,-1000.000,-1000.000,-490.723,-897.461,0
0.768,-417.969,-848.145,-534.180,860.352,0
0.772,-970.703,695.801,-604.980,-758.301,0
0.776,732.422,552.734,-618.652,-916.504,0
0.780,-926.758,-1000.000,-524.414,835.938,0
0.784,-945.801,-966.797,-499.023,989.746,0
0.788,749.512,655.762,-578.613,-713.379,0
0.792,-995.117,952.637,-619.141,-1000.000,0
0.795,-709.473,-688.477,-592.773,612.793,0
0.799,-1000.000,-1000.000,-308.105,-816.895,0
0.803,668.457,290.527,-490.234,-305.176,0
0.807,-954.102,961.914,-638.672,-1000.000,0
0.811,-564.453,-576.660,-590.820,333.984,0
0.815,-1000.000,-1000.000,-271.484,-780.762,0
0.819,229.980,-575.684,-492.188,558.105,0
0.823,-822.754,854.492,-667.480,-988.281,0
0.827,-7.812,-132.324,-605.957,-489.746,0
0.831,-1000.000,-1000.000,-500.977,-953.125,0
0.835,-628.418,-882.324,-567.871,922.852,0
0.838,950.684,670.898,-609.375,-700.195,0
0.842,826.660,709.961,-578.125,-983.398,0
0.846,-851.074,-988.770,-566.406,748.535,0
0.850,-922.363,-933.594,-566.895,938.477,0
0.854,705.566,629.395,-572.754,-705.078,0
0.858,-998.047,963.867,-505.371,-997.070,0
0.862,-706.055,-614.258,-599.609,587.402,0
0.866,-1000.000,-1000.000,-536.133,-792.969,0
0.870,652.832,66.895,-557.617,-84.961,0
0.874,-916.992,941.406,-608.398,-1000.000,0
0.877,-455.078,-505.371,-646.973,200.195,0
0.881,-1000.000,-1000.000,-498.047,-788.574,0
0.885,32.715,-664.062,-556.152,653.320,0
0.889,-839.844,825.684,-597.656,-927.734,0
0.893,221.680,56.641,-600.586,-713.867,0
0.897,-1000.000,-1000.000,-483.398,966.797,0
0.901,-732.910,-899.902,-516.602,951.172,0
0.905,880.371,666.504,-527.832,-695.312,0
0.909,917.480,813.477,-589.355,-1000.000,0
0.913,-782.227,-900.391,-634.766,647.461,0
0.917,-1000.000,-1000.000,-517.090,-891.113,0
0.920,677.246,514.648,-543.457,-574.219,0
0.924,-988.281,978.516,-622.070,-1000.000,0
0.928,-698.242,-601.562,-633.789,579.590,0
0.932,-1000.000,-1000.000,-389.648,-785.645,0
0.936,549.316,-151.855,-529.785,130.859,0
0.940,-875.488,936.523,-627.930,-1000.000,0
0.944,-344.238,-390.137,-591.309,41.504,0
0.948,-1000.000,-1000.000,-427.734,-810.547,0
0.952,-167.969,-752.441,-543.945,738.281,0
0.956,-879.395,776.367,-614.746,-852.539,0
0.960,455.078,272.949,-603.027,-822.266,0
0.963,-1000.000,-1000.000,-403.320,905.273,0
0.967,-833.984,-923.340,-494.141,971.191,0
0.971,812.500,672.363,-630.859,-714.355,0
0.975,987.305,872.559,-567.383,-1000.000,0
0.979,-702.148,-809.082,-615.723,632.324,0
0.983,-950.684,-1000.000,-581.543,950.684,0
0.987,715.332,456.055,-597.168,-534.180,0
0.991,988.770,956.055,-585.938,-1000.000,0
0.995,-674.805,-580.566,-550.293,462.402,0
0.999,-1000.000,-1000.000,-458.496,-772.461,0
1.002,441.406,-359.863,-571.777,347.168,0
1.006,-844.238,913.086,-582.520,-1000.000,0
1.010,-230.469,-269.043,-625.977,-206.055,0
1.014,-1000.000,-1000.000,-519.531,-866.699,0
1.018,-363.281,-830.078,-553.711,830.078,0
1.022,-940.430,713.867,-574.707,-774.902,0
1.026,660.156,484.375,-611.328,-914.551,0
1.030,-970.703,-1000.000,-544.434,835.449,0
1.034,-933.105,-949.219,-554.199,989.258,0
1.038,745.117,666.992,-533.203,-712.402,0
1.042,-994.629,937.988,-556.641,-1000.000,0
1.045,-709.473,-713.867,-658.203,617.188,0
1.049,-1000.000,-1000.000,-518.555,-826.172,0
1.053,665.527,313.965,-537.109,-347.656,0
1.057,-946.777,960.938,-611.816,-1000.000,0
1.061,-580.078,-577.637,-644.043,373.535,0
1.065,-1000.000,-1000.000,-458.008,-782.715,0
1.069,325.195,-534.180,-540.527,555.664,0
1.073,-819.824,874.023,-607.422,-985.840,0
1.077,-15.137,-148.926,-625.000,-469.238,0
1.081,-1000.000,-1000.000,-457.031,-945.801,0
1.085,-600.586,-878.906,-461.426,919.434,0
1.088,975.098,671.875,-576.172,-692.871,0
1.092,750.488,677.246,-612.305,-992.188,0
1.096,-920.898,-1000.000,-523.926,756.348,0
1.100,-1000.000,-1000.000,-488.770,-980.469,0
1.104,666.992,616.211,-607.910,-699.219,0
1.108,-981.934,975.586,-607.422,-1000.000,0
1.112,-713.867,-635.742,-575.195,600.098,0
1.116,-1000.000,-1000.000,-443.359,-802.246,0
1.120,650.391,121.582,-568.359,-145.508,0
1.124,-905.762,947.266,-618.164,-1000.000,0
1.127,-472.656,-522.461,-588.379,238.770,0
1.131,-1000.000,-1000.000,-454.590,-789.551,0
1.135,207.031,-644.531,-555.176,649.902,0
1.139,-804.199,836.914,-594.238,-927.246,0
1.143,190.430,25.879,-549.316,-664.062,0
1.147,-1000.000,-1000.000,-493.164,988.770,0
1.151,-714.355,-897.949,-575.195,942.383,0
1.155,912.109,668.945,-591.797,-689.941,0
1.159,852.539,789.551,-589.844,-1000.000,0
1.163,-845.215,-926.758,-613.770,659.180,0
1.167,-1000.000,-1000.000,-595.703,-923.340,0
1.170,674.316,533.691,-582.031,-635.254,0
1.174,-988.770,980.469,-578.125,-1000.000,0
1.178,-698.242,-605.469,-613.770,587.402,0
1.182,-1000.000,-1000.000,-445.312,-789.551,0
1.186,547.363,-95.703,-519.043,33.203,0
1.190,-866.211,943.848,-518.555,-1000.000,0
1.194,-356.934,-414.062,-612.305,141.113,0
1.198,-1000.000,-1000.000,-506.348,-795.898,0
1.202,-10.742,-734.375,-514.160,719.238,0
1.206,-835.449,791.992,-605.469,-864.258,0
1.210,407.227,247.559,-632.812,-774.414,0
1.213,-1000.000,-1000.000,-488.281,950.195,0
1.217,-815.430,-911.621,-483.887,950.195,0
1.221,833.496,671.387,-592.285,-700.684,0
1.225,740.234,662.598,-610.840,-840.820,0
1.229,-851.074,-913.086,-582.031,718.262,0
1.233,-1000.000,-1000.000,-405.762,-914.551,0
1.237,664.062,428.223,-542.969,-510.742,0
1.241,-990.723,979.492,-641.113,-1000.000,0
1.245,-682.617,-590.820,-605.957,502.930,0
1.249,-1000.000,-1000.000,-425.781,-782.715,0
1.252,440.430,-325.684,-557.617,142.578,0
1.256,-836.914,916.016,-646.484,-1000.000,0
1.260,-239.258,-292.969,-611.816,-71.777,0
1.264,-1000.000,-1000.000,-462.891,-833.984,0
1.268,-224.121,-817.383,-527.832,751.953,0
1.272,-889.160,726.074,-614.258,-859.375,0
1.276,619.629,458.008,-613.770,-824.219,0
1.280,-977.051,-1000.000,-367.676,902.344,0
1.284,-922.852,-946.777,-410.156,971.191,0
1.288,753.418,670.898,-637.695,-706.055,0
1.292,-996.094,917.969,-593.750,-1000.000,0
1.295,-708.984,-745.117,-614.746,627.441,0
1.299,-1000.000,-1000.000,-533.691,-846.191,0
1.303,665.527,343.750,-576.172,-415.039,0
1.307,-946.289,966.309,-587.891,-1000.000,0
1.311,-580.078,-586.426,-608.887,406.250,0
1.315,-1000.000,-1000.000,-465.820,-776.367,0
1.319,324.707,-511.719,-531.250,356.445,0
1.323,-812.500,783.691,-573.242,-1000.000,0
1.327,-21.973,-197.754,-604.004,-296.875,0
1.331,-1000.000,-1000.000,-485.840,-892.090,0
1.335,-442.383,-881.348,-525.391,842.773,0
1.338,-955.566,679.688,-537.598,-781.738,0
1.342,723.145,661.621,-588.867,-912.598,0
1.346,-909.180,-1000.000,-576.172,835.449,0
1.350,-1000.000,-1000.000,-542.969,989.258,0
1.354,669.434,625.000,-607.422,-713.379,0
1.358,-982.422,970.215,-623.047,-1000.000,0
1.362,-713.867,-649.414,-605.957,613.281,0
1.366,-1000.000,-1000.000,-390.137,-819.336,0
1.370,650.391,172.363,-519.043,-299.805,0
1.374,-905.762,951.172,-655.273,-1000.000,0
1.377,-472.656,-540.527,-635.742,304.688,0
1.381,-1000.000,-1000.000,-410.645,-781.250,0
1.385,207.031,-626.465,-438.965,561.523,0
1.389,-803.711,843.262,-627.930,-990.234,0
1.393,190.918,-11.719,-651.855,-520.020,0
1.397,-1000.000,-1000.000,-415.527,-958.496,0
1.401,-684.570,-894.531,-523.926,921.387,0
1.405,937.988,668.457,-645.996,-695.801,0
1.409,834.961,778.320,-614.746,-888.184,0
1.413,-854.492,-938.965,-568.359,781.738,0
1.417,-1000.000,-1000.000,-511.230,-969.727,0
1.420,673.340,541.992,-612.305,-649.902,0
1.424,-989.258,981.934,-624.023,-1000.000,0
1.428,-698.242,-607.910,-535.156,595.703,0
1.432,-1000.000,-1000.000,-423.340,-797.363,0
1.436,547.363,-52.734,-575.195,-81.055,0
1.440,-866.211,942.871,-621.094,-1000.000,0
1.444,-356.934,-441.895,-616.699,175.781,0
1.448,-1000.000,-1000.000,-478.516,-784.668,0
1.452,-10.742,-717.773,-541.016,648.926,0
1.456,-835.449,800.293,-592.773,-926.758,0
1.460,408.691,201.172,-588.379,-627.930,0
1.463,-1000.000,-1000.000,-470.215,994.629,0
1.467,-784.668,-916.504,-557.129,937.500,0
1.471,873.047,668.945,-596.680,-687.988,0
1.475,918.457,850.586,-511.719,-1000.000,0
1.479,-783.691,-849.609,-589.844,647.461,0
1.483,-1000.000,-1000.000,-557.129,-892.090,0
1.487,679.688,454.590,-554.199,-568.848,0
1.491,-996.094,975.098,-615.234,-1000.000,0
1.495,-682.617,-593.262,-642.090,561.523,0
1.499,-1000.000,-1000.000,-443.848,-787.109,0
1.502,440.430,-276.367,-487.793,136.719,0
1.506,-836.914,925.293,-595.703,-1000.000,0
1.510,-239.258,-318.848,-647.461,-14.648,0
1.514,-1000.000,-1000.000,-481.445,-822.266,0
1.518,-224.121,-801.270,-471.191,745.117,0
1.522,-889.160,741.699,-586.426,-855.469,0
1.526,622.070,426.270,-654.297,-825.195,0
1.530,-986.328,-1000.000,-481.934,902.344,0
1.534,-886.230,-942.871,-502.441,971.191,0
1.538,792.969,670.410,-632.324,-705.566,0
1.542,995.117,911.133,-635.254,-1000.000,0
1.545,-706.543,-758.301,-604.004,628.418,0
1.549,-1000.000,-1000.000,-444.336,-848.145,0
1.553,670.898,360.840,-539.062,-440.430,0
1.557,-962.402,967.285,-637.695,-1000.000,0
1.561,-604.980,-582.031,-594.238,460.938,0
1.565,-1000.000,-1000.000,-225.098,-779.785,0
1.569,324.219,-479.492,-466.797,352.539,0
1.573,-813.477,887.207,-675.293,-1000.000,0
1.577,-21.973,-196.777,-600.586,-268.555,0
1.581,-1000.000,-1000.000,-483.887,-884.277,0
1.585,-442.383,-867.676,-567.871,838.867,0
1.588,-956.543,680.176,-617.676,-779.297,0
1.592,728.516,637.207,-566.895,-913.574,0
1.596,-924.316,-1000.000,-532.227,835.449,0
1.600,-954.102,-995.605,-569.824,989.258,0
1.604,739.258,633.301,-582.520,-713.379,0
1.608,-993.652,966.797,-507.812,-1000.000,0
1.612,-711.426,-656.738,-598.633,613.281,0
1.616,-1000.000,-1000.000,-518.555,-818.359,0
1.620,658.691,197.266,-548.340,-324.707,0
1.624,-927.734,946.777,-605.957,-1000.000,0
1.627,-514.648,-557.617,-631.348,372.559,0
1.631,-1000.000,-1000.000,-482.910,-774.414,0
1.635,208.008,-607.422,-555.176,520.508,0
1.639,-804.688,852.539,-632.812,-993.652,0
1.643,191.895,-41.016,-626.953,-337.402,0
1.647,-1000.000,-1000.000,-452.637,-903.320,0
1.651,-656.250,-892.090,-498.047,900.391,0
1.655,959.961,666.992,-541.504,-683.594,0
1.659,829.102,776.855,-599.121,-994.629,0
1.663,-857.910,-950.195,-602.539,760.742,0
1.667,-1000.000,-1000.000,-551.270,-982.910,0
1.670,670.898,556.152,-606.934,-694.336,0
1.674,914.551,882.324,-612.305,-899.414,0
1.678,-737.793,-643.555,-611.816,613.281,0
1.682,-1000.000,-1000.000,-386.230,-798.828,0
1.686,597.168,-21.973,-513.184,127.930,0
1.690,-910.156,929.688,-586.914,-1000.000,0
1.694,-452.637,-487.793,-585.449,140.625,0
1.698,-1000.000,-1000.000,-420.898,-789.551,0
1.702,0.000,-684.570,-533.203,716.797,0
1.706,-842.773,816.406,-602.051,-863.281,0
1.710,305.176,112.305,-581.543,-775.879,0
1.713,-1000.000,-1000.000,-520.508,938.965,0
1.717,-745.117,-906.250,-601.562,960.449,0
1.721,886.230,666.504,-579.102,-699.707,0
1.725,915.527,832.031,-516.113,-1000.000,0
1.729,-782.227,-876.465,-621.094,642.578,0
1.733,-1000.000,-1000.000,-627.930,-882.324,0
1.737,678.711,488.281,-564.453,-524.902,0
1.741,-994.141,977.539,-491.699,-1000.000,0
1.745,-685.547,-598.145,-537.109,488.281,0
1.749,-1000.000,-1000.000,-492.676,-783.691,0
1.752,483.398,-197.754,-578.613,228.516,0
1.756,-873.047,933.594,-520.996,-1000.000,0
1.760,-339.844,-363.770,-600.098,-168.945,0
1.764,-1000.000,-1000.000,-566.895,-868.164,0
1.768,-218.262,-770.020,-594.727,820.312,0
1.772,-889.160,769.043,-502.930,-789.062,0
1.776,617.188,357.910,-549.316,-906.738,0
1.780,-990.723,-1000.000,-568.848,833.008,0
1.784,-761.719,-934.570,-600.098,889.648,0
1.788,854.004,668.457,-531.738,-745.605,0
1.792,973.633,898.926,-481.934,-1000.000,0
1.795,-696.289,-782.227,-647.949,617.188,0
1.799,-1000.000,-1000.000,-610.352,-840.332,0
1.803,683.105,401.367,-501.953,-379.883,0
1.807,-999.512,970.215,-505.859,-1000.000,0
1.811,-671.875,-585.938,-651.855,336.426,0
1.815,-1000.000,-1000.000,-555.176,-777.344,0
1.819,379.395,-412.109,-565.918,495.605,0
1.823,-842.773,904.297,-537.598,-1000.000,0
1.827,-215.332,-235.840,-596.680,-365.723,0
1.831,-1000.000,-1000.000,-518.066,-918.457,0
1.835,-419.434,-849.121,-501.465,906.738,0
1.838,-962.891,697.266,-509.277,-688.477,0
1.842,687.988,554.688,-580.078,-982.910,0
1.846,-960.938,-1000.000,-568.848,775.879,0
1.850,-936.035,-964.844,-597.656,-996.582,0
1.854,746.582,656.738,-586.426,-717.773,0
1.858,-994.629,957.520,-524.414,-1000.000,0
1.862,-709.961,-680.176,-617.676,607.910,0
1.866,-1000.000,-1000.000,-597.168,-814.453,0
1.870,667.480,266.602,-601.562,-212.402,0
1.874,-951.172,952.637,-526.855,-1000.000,0
1.877,-570.801,-572.754,-596.680,227.539,0
1.881,-1000.000,-1000.000,-539.062,-794.434,0
1.885,264.160,-564.941,-577.637,641.602,0
1.889,-820.312,865.723,-523.926,-936.523,0
1.893,15.625,-112.793,-516.113,-691.895,0
1.897,-1000.000,-1000.000,-518.066,974.121,0
1.901,-632.812,-884.766,-616.699,947.754,0
1.905,951.660,666.016,-537.598,-691.895,0
1.909,810.547,728.027,-507.812,-1000.000,0
1.913,-872.559,-984.863,-601.074,659.668,0
1.917,-1000.000,-1000.000,-653.809,-923.340,0
1.920,670.410,599.121,-553.223,-634.766,0
1.924,-981.934,982.422,-368.164,-1000.000,0
1.928,-713.867,-620.605,-582.031,591.797,0
1.932,-1000.000,-1000.000,-595.215,-798.340,0
1.936,652.832,77.637,-531.738,6.348,0
1.940,-916.504,947.754,-392.090,-1000.000,0
1.944,-456.055,-501.953,-586.914,54.688,0
1.948,-1000.000,-1000.000,-592.773,-815.918,0
1.952,44.922,-661.621,-560.547,718.750,0
1.956,-837.891,832.520,-529.785,-875.488,0
1.960,209.961,78.125,-590.332,-805.176,0
1.963,-1000.000,-1000.000,-547.363,918.457,0
1.967,-725.098,-896.484,-568.848,961.914,0
1.971,877.441,664.551,-557.617,-700.195,0
1.975,818.359,722.168,-527.832,-936.523,0
1.979,-815.918,-927.734,-622.070,676.758,0
1.983,-1000.000,-1000.000,-565.918,-897.949,0
1.987,669.434,510.254,-548.828,-516.602,0
1.991,-985.840,981.445,-552.246,-1000.000,0
1.995,-698.242,-602.051,-634.277,489.746,0
1.999,-1000.000,-1000.000,-575.195,-780.273,0
2.002,548.828,-147.949,-593.262,190.430,0
2.006,-874.023,940.430,-540.039,-1000.000,0
2.010,-345.703,-386.230,-592.773,-84.473,0
2.014,-1000.000,-1000.000,-542.969,-848.633,0
2.018,-144.043,-752.441,-585.449,813.477,0
2.022,-872.559,779.785,-531.738,-788.086,0
2.026,436.523,293.945,-549.316,-857.910,0
2.030,-1000.000,-1000.000,-436.035,887.207,0
2.034,-833.496,-926.270,-548.828,976.562,0
2.038,811.523,667.969,-609.863,-707.031,0
2.042,976.074,880.859,-497.070,-1000.000,0
2.045,-727.539,-809.570,-631.836,627.930,0
2.049,-1000.000,-1000.000,-643.066,-848.145,0
2.053,680.664,428.223,-585.938,-411.133,0
2.057,-995.117,972.656,-481.445,-1000.000,0
2.061,-682.617,-589.355,-606.445,382.324,0
2.065,-1000.000,-1000.000,-575.195,-775.879,0
2.069,441.406,-357.422,-567.383,417.480,0
2.073,-841.797,916.504,-440.430,-1000.000,0
2.077,-232.910,-264.648,-562.012,-303.223,0
2.081,-1000.000,-1000.000,-587.402,-899.414,0
2.085,-324.707,-830.078,-576.172,883.301,0
2.088,-923.828,715.820,-506.348,-727.051,0
2.092,634.766,501.465,-562.500,-921.875,0
2.096,-982.910,-1000.000,-598.145,836.914,0
2.100,-929.688,-951.172,-602.539,990.234,0
2.104,743.652,666.504,-560.547,-713.379,0
2.108,-994.141,944.824,-504.395,-1000.000,0
2.112,-709.473,-705.566,-637.695,613.770,0
2.116,-1000.000,-1000.000,-574.707,-818.848,0
2.120,666.016,313.965,-471.680,-300.781,0
2.124,-946.289,960.938,-506.348,-1000.000,0
2.127,-589.844,-592.773,-647.949,312.988,0
2.131,-1000.000,-1000.000,-537.109,-777.832,0
2.135,346.191,-515.137,-574.707,534.180,0
2.139,901.367,498.535,-606.934,-807.129,0
2.143,-160.156,-324.707,-617.676,-369.629,0
2.147,-1000.000,-1000.000,-455.078,-994.141,0
2.151,-649.414,-910.156,-562.012,938.965,0
2.155,970.215,680.176,-583.008,-701.172,0
2.159,755.859,694.336,-538.086,-979.004,0
2.163,-922.363,-1000.000,-556.641,765.625,0
2.167,-1000.000,-1000.000,-593.750,-973.145,0
2.170,666.504,614.746,-608.887,-683.594,0
2.174,-981.445,979.004,-567.871,-1000.000,0
2.178,-713.867,-625.488,-576.172,594.727,0
2.182,-1000.000,-1000.000,-497.559,-795.898,0
2.186,652.344,87.891,-581.055,-85.938,0
2.190,-915.039,947.266,-602.539,-1000.000,0
2.194,-458.008,-507.812,-624.512,204.590,0
2.198,-1000.000,-1000.000,-488.770,-784.180,0
2.202,57.617,-658.203,-547.363,648.438,0
2.206,-832.520,832.520,-588.379,-929.199,0
2.210,269.531,62.988,-529.785,-614.746,0
2.213,-1000.000,-1000.000,-412.109,-990.234,0
2.217,-741.699,-901.367,-539.062,936.035,0
2.221,883.789,666.992,-605.957,-691.895,0
2.225,916.504,812.988,-585.938,-1000.000,0
2.229,-782.227,-901.855,-616.211,687.500,0
2.233,-1000.000,-1000.000,-577.637,-928.223,0
2.237,677.246,518.066,-553.711,-633.789,0
2.241,-988.281,979.004,-584.473,-1000.000,0
2.245,-712.891,-617.188,-630.371,608.887,0
2.249,-1000.000,-1000.000,-430.176,-808.105,0
2.252,566.895,-123.047,-515.137,-66.406,0
2.256,750.000,562.012,-623.047,-749.512,0
2.260,-528.320,-572.266,-616.211,332.520,0
2.264,-1000.000,-1000.000,-451.172,-869.629,0
2.268,-155.762,-782.715,-466.797,741.211,0
2.272,-858.398,787.109,-591.797,-885.742,0
2.276,510.742,279.785,-655.273,-756.348,0
2.280,-1000.000,-1000.000,-454.590,951.660,0
2.284,-846.191,-924.805,-516.113,957.031,0
2.288,814.941,668.457,-631.836,-698.242,0
2.292,984.375,875.000,-619.141,-1000.000,0
2.295,-714.355,-814.941,-588.379,643.066,0
2.299,-1000.000,-1000.000,-430.664,-881.836,0
2.303,681.641,424.316,-528.320,-524.902,0
2.307,-996.582,971.680,-621.094,-1000.000,0
2.311,-679.199,-587.891,-585.938,492.676,0
2.315,-1000.000,-1000.000,-239.746,-781.250,0
2.319,421.875,-372.070,-471.680,150.879,0
2.323,-844.727,904.785,-666.992,-1000.000,0
2.327,-228.027,-272.461,-594.238,-69.824,0
2.331,-1000.000,-1000.000,-467.773,-846.191,0
2.334,-387.207,-831.543,-575.684,800.293,0
2.338,-947.266,716.797,-634.766,-801.758,0
2.342,678.711,478.516,-587.891,-870.605,0
2.346,-958.984,-1000.000,-512.207,865.234,0
2.350,-824.219,-849.121,-553.223,881.348,0
2.354,794.434,700.195,-596.191,-742.676,0
2.358,986.328,924.805,-522.461,-1000.000,0
2.362,-701.172,-700.684,-602.539,620.117,0
2.366,-1000.000,-1000.000,-544.434,-845.215,0
2.370,665.527,304.199,-566.895,-411.133,0
2.374,-946.289,958.984,-629.883,-1000.000,0
2.377,-580.078,-576.660,-620.605,383.301,0
2.381,-1000.000,-1000.000,-428.711,-775.879,0
2.385,324.707,-540.527,-520.020,396.973,0
2.389,-816.406,869.629,-588.379,-1000.000,0
2.393,-18.555,-148.926,-610.840,-299.316,0
2.397,-1000.000,-1000.000,-456.543,-902.832,0
2.401,-517.090,-878.418,-503.906,889.160,0
2.405,-999.023,671.387,-604.492,-710.938,0
2.409,783.691,683.594,-628.906,-950.684,0
2.413,-871.094,-1000.000,-579.590,807.617,0
2.417,-1000.000,-1000.000,-545.898,996.582,0
2.420,679.199,620.117,-590.820,-724.609,0
2.424,-992.188,970.215,-627.930,-1000.000,0
2.428,-715.332,-637.207,-620.117,615.723,0
2.432,-841.309,-1000.000,-389.160,981.934,0
2.436,726.074,152.344,-512.207,-370.117,0
2.440,-939.453,927.246,-647.461,-1000.000,0
2.444,-457.031,-513.672,-621.094,259.277,0
2.448,-1000.000,-1000.000,-317.871,-774.902,0
2.452,207.031,-647.949,-463.379,562.500,0
2.456,-804.199,833.496,-662.109,-991.699,0
2.459,190.430,24.902,-623.535,-519.531,0
2.463,-1000.000,-1000.000,-473.145,-962.891,0
2.467,-703.125,-897.949,-544.434,925.293,0
2.471,916.992,673.828,-643.066,-695.801,0
2.475,875.488,783.691,-606.445,-1000.000,0
2.479,-822.266,-937.012,-578.613,718.262,0
2.483,-919.434,-976.074,-542.480,957.031,0
2.487,718.262,574.707,-583.008,-675.293,0
2.491,706.055,674.805,-581.055,-713.379,0
2.495,-814.453,-721.191,-504.395,712.402,0
2.499,-1000.000,-1000.000,-373.047,-848.145,0
2.502,524.902,-123.047,-576.172,-54.199,0
2.506,-862.305,946.777,-632.324,-1000.000,0
2.510,-351.074,-418.945,-612.305,153.809,0
2.514,-1000.000,-1000.000,-490.723,-790.039,0
2.518,-78.125,-733.398,-573.730,656.738,0
2.522,-849.121,796.875,-599.609,-935.059,0
2.526,411.133,236.328,-614.746,-721.191,0
2.530,-1000.000,-1000.000,-500.000,958.984,0
2.534,-703.125,-820.801,-530.762,854.004,0
2.538,874.512,702.637,-569.336,-730.957,0
2.542,947.754,847.656,-578.125,-1000.000,0
2.545,-725.098,-824.707,-622.559,634.277,0
2.549,-1000.000,-1000.000,-517.578,-875.977,0
2.553,680.664,445.312,-504.395,-532.715,0
2.557,-995.117,974.121,-595.703,-1000.000,0
2.561,-682.617,-591.797,-649.902,530.762,0
2.565,-1000.000,-1000.000,-442.871,-786.133,0
2.569,440.430,-314.941,-543.457,142.578,0
2.573,-836.914,919.434,-633.301,-1000.000,0
2.577,-239.258,-296.387,-629.883,-71.777,0
2.581,-1000.000,-1000.000,-430.664,-833.984,0
2.584,-224.121,-816.406,-458.008,751.953,0
2.588,-889.160,727.539,-603.516,-859.375,0
2.592,621.094,461.914,-640.625,-824.219,0
2.596,-983.398,-1000.000,-482.910,902.344,0
2.600,-898.926,-947.266,-481.445,971.680,0
2.604,779.297,670.410,-615.723,-706.055,0
2.608,998.047,919.922,-614.258,-1000.000,0
2.612,-708.008,-743.652,-586.914,626.953,0
2.616,-1000.000,-1000.000,-497.070,-845.215,0
2.620,666.016,348.145,-586.914,-417.969,0
2.624,-946.289,966.797,-621.094,-1000.000,0
2.627,-580.078,-581.543,-563.965,419.434,0
2.631,-1000.000,-1000.000,-381.348,-777.832,0
2.635,324.707,-504.883,-529.785,355.957,0
2.639,-812.988,884.277,-626.953,-1000.000,0
2.643,-21.973,-167.969,-539.551,-296.875,0
2.647,-1000.000,-1000.000,-437.012,-892.090,0
2.651,-442.383,-873.535,-564.453,842.773,0
2.655,-946.289,686.523,-601.562,-791.016,0
2.659,713.867,646.973,-600.098,-902.832,0
2.663,-913.574,-1000.000,-551.270,836.914,0
2.667,-800.781,-807.129,-569.336,792.969,0
2.670,758.301,701.660,-589.355,-789.062,0
2.674,981.934,937.012,-575.684,-986.328,0
2.678,-697.754,-633.789,-612.793,597.656,0
2.682,-1000.000,-1000.000,-425.293,-814.453,0
2.686,650.391,177.246,-519.043,-299.316,0
2.690,-905.762,951.660,-622.559,-1000.000,0
2.694,-472.656,-542.480,-630.859,301.270,0
2.698,-1000.000,-1000.000,-490.723,-780.762,0
2.702,207.031,-622.070,-530.273,561.523,0
2.706,-804.199,846.191,-534.180,-990.723,0
2.709,190.918,-17.090,-635.254,-519.531,0
2.713,-1000.000,-1000.000,-500.488,-950.195,0
2.717,-707.520,-883.789,-506.836,916.016,0
2.721,914.062,669.434,-623.535,-706.055,0
2.725,646.484,583.496,-614.746,-699.707,0
2.729,-932.617,-1000.000,-563.965,875.000,0
2.733,-987.793,-1000.000,-429.688,984.863,0
2.737,657.715,534.180,-552.246,-649.414,0
2.741,-983.398,987.305,-663.086,-1000.000,0
2.745,-697.754,-608.887,-617.188,595.215,0
2.749,-1000.000,-1000.000,-413.086,-795.898,0
2.752,553.711,-38.086,-552.734,-84.961,0
2.756,-870.605,949.219,-648.438,-1000.000,0
2.760,-378.906,-455.566,-613.281,208.984,0
2.764,-1000.000,-1000.000,-481.445,-791.016,0
2.768,130.859,-609.863,-538.574,554.199,0
2.772,-819.336,841.797,-609.375,-961.426,0
2.776,400.879,179.199,-606.934,-711.426,0
2.780,-1000.000,-1000.000,-372.559,952.637,0
2.784,-778.320,-918.457,-504.395,956.543,0
2.788,881.348,668.945,-654.785,-696.289,0
2.792,916.504,848.145,-575.195,-1000.000,0
2.795,-783.203,-851.562,-583.496,647.949,0
2.799,-1000.000,-1000.000,-553.223,-892.578,0
2.803,679.688,455.078,-595.215,-576.660,0
2.807,-996.094,976.562,-566.406,-1000.000,0
2.811,-682.617,-594.238,-597.168,580.078,0
2.815,-1000.000,-1000.000,-464.844,-786.133,0
2.819,440.430,-256.836,-537.109,131.348,0
2.823,-837.402,928.223,-544.434,-1000.000,0
2.827,-240.723,-330.078,-599.121,36.133,0
2.831,-1000.000,-1000.000,-508.301,-806.641,0
2.834,-224.121,-796.387,-546.387,732.910,0
2.838,-889.160,745.117,-636.719,-850.098,0
2.842,624.023,414.062,-631.836,-726.074,0
2.846,-992.188,-1000.000,-483.398,936.523,0
2.850,-861.816,-941.406,-523.926,955.566,0
2.854,819.336,669.922,-612.793,-697.266,0
2.858,989.746,910.645,-598.633,-1000.000,0
2.862,-705.078,-760.254,-608.398,628.906,0
2.866,-1000.000,-1000.000,-467.773,-849.121,0
2.870,675.293,365.234,-475.098,-441.406,0
2.874,-976.074,967.773,-604.980,-1000.000,0
2.877,-626.465,-582.031,-646.973,456.543,0
2.881,-1000.000,-1000.000,-424.805,-779.297,0
2.885,324.219,-468.262,-548.828,352.051,0
2.889,-813.965,891.602,-654.297,-1000.000,0
2.893,-21.484,-202.148,-645.020,-261.719,0
2.897,-1000.000,-1000.000,-446.777,-876.953,0
2.901,-436.035,-858.887,-538.574,831.543,0
2.905,-958.496,680.176,-625.488,-777.344,0
2.909,628.418,518.066,-625.488,-813.965,0
2.913,-957.031,-1000.000,-437.988,869.629,0
2.917,-942.383,-975.586,-408.691,973.145,0
2.920,725.098,625.488,-628.418,-704.102,0
2.924,-989.746,967.773,-615.234,-1000.000,0
2.928,-711.426,-660.156,-612.305,619.629,0
2.932,-1000.000,-1000.000,-486.816,-830.566,0
2.936,659.668,205.078,-583.984,-360.840,0
2.940,-930.664,945.312,-619.141,-1000.000,0
2.944,-520.020,-562.012,-593.750,374.512,0
2.948,-1000.000,-1000.000,-452.637,-777.832,0
2.952,214.355,-597.168,-551.270,549.316,0
2.956,-806.641,856.934,-610.840,-983.887,0
2.959,92.285,-80.078,-587.402,-366.211,0
2.963,-1000.000,-1000.000,-452.148,-910.645,0
2.967,-640.137,-886.230,-552.734,903.320,0
2.971,951.660,665.527,-603.027,-684.570,0
2.975,831.543,757.324,-505.371,-996.094,0
2.979,-852.539,-957.520,-566.406,758.301,0
2.983,-1000.000,-1000.000,-600.586,-985.840,0
2.987,673.340,563.477,-565.918,-707.520,0
2.991,-988.770,981.934,-596.680,-1000.000,0
2.995,-697.754,-610.352,-643.555,597.168,0
2.999,-1000.000,-1000.000,-453.613,-799.805,0
3.002,550.781,-14.648,-525.391,-103.516,0
3.006,-874.512,941.895,-604.004,-1000.000,0
3.010,-375.977,-464.844,-614.258,200.684,0
3.014,-1000.000,-1000.000,-461.426,-790.527,0
3.018,-9.766,-692.383,-476.562,654.297,0
3.022,-835.938,818.359,-582.520,-927.734,0
3.026,410.156,156.250,-637.695,-727.051,0
3.030,-1000.000,-1000.000,-444.336,960.938,0
3.034,-761.719,-911.621,-501.953,953.613,0
3.038,894.043,668.945,-616.211,-695.801,0
3.042,913.574,835.449,-621.582,-1000.000,0
3.045,-782.227,-868.652,-588.379,651.367,0
3.049,-1000.000,-1000.000,-478.027,-901.855,0
3.053,679.199,472.656,-556.641,-594.727,0
3.057,-996.094,976.562,-623.535,-1000.000,0
3.061,-682.129,-595.215,-595.215,583.496,0
3.065,-1000.000,-1000.000,-247.070,-791.992,0
3.069,443.359,-236.328,-493.164,105.957,0
3.073,-843.750,926.270,-680.176,-1000.000,0
3.077,-258.789,-349.609,-594.727,-0.488,0
3.081,-1000.000,-1000.000,-446.289,-821.777,0
3.084,-223.145,-781.250,-564.453,745.117,0
3.088,-890.137,755.859,-635.254,-859.863,0
3.092,624.023,359.863,-555.176,-794.434,0
3.096,-992.188,-1000.000,-465.820,925.781,0
3.100,-861.328,-934.082,-550.781,964.844,0
3.104,819.824,667.480,-612.305,-701.172,0
3.108,989.746,905.273,-538.086,-1000.000,0
3.112,-704.102,-771.484,-591.797,640.137,0
3.116,-1000.000,-1000.000,-548.828,-874.512,0
3.120,684.082,382.812,-576.172,-508.789,0
3.124,998.535,968.750,-588.867,-1000.000,0
3.127,-666.504,-588.379,-626.953,480.469,0
3.131,-1000.000,-1000.000,-458.984,-776.855,0
3.135,328.125,-448.730,-528.809,323.242,0
3.139,-840.332,793.945,-607.910,-1000.000,0
3.143,-67.871,-256.836,-609.863,-131.348,0
3.147,-1000.000,-1000.000,-455.078,-848.633,0
3.151,-438.965,-865.234,-530.762,820.312,0
3.155,-958.984,690.918,-520.508,-770.020,0
3.159,729.004,574.219,-571.289,-913.574,0
3.163,-923.828,-1000.000,-560.059,837.891,0
3.167,-955.078,-977.539,-538.086,988.281,0
3.170,737.305,644.043,-625.000,-711.914,0
3.174,-993.164,958.984,-629.395,-1000.000,0
3.178,-709.961,-674.316,-619.629,620.117,0
3.182,-1000.000,-1000.000,-428.711,-831.543,0
3.186,666.504,235.840,-553.223,-363.770,0
3.190,-949.219,946.777,-633.789,-1000.000,0
3.194,-560.059,-569.824,-598.633,375.977,0
3.198,-1000.000,-1000.000,-403.809,-782.715,0
3.202,222.168,-585.938,-527.344,519.043,0
3.206,-806.152,858.887,-648.438,-1000.000,0
3.209,190.918,-85.449,-633.789,-460.449,0
3.213,-1000.000,-1000.000,-345.703,-947.754,0
3.217,-656.250,-887.207,-462.891,921.387,0
3.221,959.473,667.480,-670.410,-695.312,0
3.225,829.102,735.352,-597.656,-980.957,0
3.229,-857.910,-979.004,-507.812,780.762,0
3.233,-1000.000,-1000.000,-541.504,997.070,0
3.237,670.410,571.289,-611.328,-715.332,0
3.241,915.039,884.277,-593.750,-917.480,0
3.245,-739.746,-646.973,-594.238,643.555,0
3.249,-1000.000,-1000.000,-442.383,-831.055,0
3.252,597.656,16.602,-560.547,-239.258,0
3.256,-899.902,941.406,-610.840,-1000.000,0
3.260,-428.711,-490.234,-607.910,271.484,0
3.264,-1000.000,-1000.000,-484.375,-794.434,0
3.268,-7.812,-683.105,-549.805,640.137,0
3.272,-838.379,819.824,-571.777,-933.594,0
3.276,410.156,120.117,-613.770,-666.504,0
3.280,-1000.000,-1000.000,-501.465,985.840,0
3.284,-761.719,-907.715,-552.734,943.359,0
3.288,894.043,668.457,-558.105,-689.941,0
3.292,913.086,825.195,-478.027,-1000.000,0
3.295,-782.227,-883.301,-544.922,659.180,0
3.299,-1000.000,-1000.000,-570.801,-923.340,0
3.303,679.199,492.188,-563.477,-635.254,0
3.307,-995.117,977.539,-614.746,-1000.000,0
3.311,-682.617,-598.145,-646.973,588.379,0
3.315,-1000.000,-1000.000,-404.297,-790.039,0
3.319,469.238,-195.312,-536.621,26.855,0
3.323,-871.582,927.246,-656.250,-1000.000,0
3.327,-339.355,-376.465,-639.160,142.578,0
3.331,-1000.000,-1000.000,-457.520,-799.805,0
3.334,-218.262,-769.043,-527.344,729.492,0
3.338,-894.531,767.090,-604.980,-846.191,0
3.342,624.023,339.844,-640.137,-823.730,0
3.346,-992.188,-1000.000,-454.590,905.273,0
3.350,-861.328,-932.129,-366.699,970.703,0
3.354,820.312,669.434,-596.191,-703.125,0
3.358,989.746,890.137,-638.184,-1000.000,0
3.362,-704.102,-791.504,-577.637,639.648,0
3.366,-1000.000,-1000.000,-517.090,-875.000,0
3.370,683.594,398.926,-590.332,-509.277,0
3.374,999.023,970.215,-607.422,-1000.000,0
3.377,-669.922,-584.961,-542.480,481.445,0
3.381,-1000.000,-1000.000,-366.211,-780.762,0
3.385,360.840,-416.016,-541.016,326.172,0
3.389,-836.914,895.508,-632.324,-1000.000,0
3.393,-170.898,-250.000,-561.523,-197.266,0
3.397,-1000.000,-1000.000,-458.984,-867.188,0
3.401,-424.316,-847.656,-582.520,829.590,0
3.405,-967.285,695.801,-619.629,-774.414,0
3.409,731.445,537.109,-603.516,-915.039,0
3.413,-926.758,-1000.000,-522.461,835.449,0
3.417,-945.801,-966.309,-569.336,989.258,0
3.420,749.512,652.344,-609.863,-712.402,0
3.424,-995.605,949.219,-576.660,-1000.000,0
3.428,-709.473,-689.453,-581.055,619.629,0
3.432,-1000.000,-1000.000,-460.449,-830.078,0
3.436,668.457,258.301,-550.781,-359.863,0
3.440,-954.590,950.195,-618.164,-1000.000,0
3.444,-564.453,-571.289,-649.414,374.512,0
3.448,-1000.000,-1000.000,-490.234,-781.250,0
3.452,221.680,-576.660,-528.809,548.340,0
3.456,-818.848,856.445,-525.879,-986.328,0
3.459,40.527,-122.559,-616.211,-425.293,0
3.463,-1000.000,-1000.000,-502.930,-931.152,0
3.467,-634.766,-883.301,-505.859,913.086,0
3.471,948.730,665.527,-614.746,-688.965,0
3.475,832.031,726.562,-609.375,-995.117,0
3.479,-852.539,-982.422,-538.086,760.742,0
3.483,-1000.000,-1000.000,-460.938,-993.652,0
3.487,672.363,587.891,-565.918,-719.238,0
3.491,-984.375,979.004,-634.277,-1000.000,0
3.495,-707.520,-621.094,-603.516,601.074,0
3.499,-1000.000,-1000.000,-342.773,-803.711,0
3.502,622.559,46.875,-524.902,-168.457,0
3.506,-914.551,936.523,-656.738,-1000.000,0
3.510,-454.102,-502.930,-601.074,262.207,0
3.514,-1000.000,-1000.000,-415.039,-790.527,0
3.518,9.766,-670.410,-517.578,648.926,0
3.522,-840.332,822.754,-615.723,-925.781,0
3.526,319.336,72.754,-595.215,-666.504,0
3.530,-1000.000,-1000.000,-430.176,987.793,0
3.534,-747.559,-901.855,-534.180,942.871,0
3.538,887.207,666.504,-630.859,-689.941,0
3.542,915.039,817.871,-562.988,-1000.000,0
3.545,-782.227,-893.066,-506.348,659.180,0
3.549,-1000.000,-1000.000,-502.930,-923.340,0
3.553,678.223,501.953,-598.145,-635.254,0
3.557,-992.676,978.516,-558.594,-1000.000,0
3.561,-688.477,-600.098,-589.844,586.914,0
3.565,-1000.000,-1000.000,-452.148,-789.062,0
3.569,500.488,-164.551,-529.785,38.086,0
3.573,-872.070,933.594,-545.898,-1000.000,0
3.577,-342.773,-386.230,-592.773,141.113,0
3.581,-1000.000,-1000.000,-498.535,-798.828,0
3.584,-180.176,-759.766,-544.922,729.492,0
3.588,-883.301,771.484,-612.305,-847.656,0
3.592,541.992,294.922,-632.812,-816.895,0
3.596,-1000.000,-1000.000,-500.488,910.645,0
3.600,-848.633,-926.270,-525.391,968.750,0
3.604,819.336,672.852,-607.910,-708.984,0
3.608,985.352,876.465,-587.891,-1000.000,0
3.612,-702.148,-802.246,-603.516,631.836,0
3.616,-950.684,-1000.000,-488.770,-960.449,0
3.620,716.309,447.266,-502.441,-510.742,0
3.624,986.816,955.078,-611.816,-1000.000,0
3.627,-670.898,-579.102,-653.320,472.656,0
3.631,-1000.000,-1000.000,-420.898,-780.273,0
3.635,418.457,-386.719,-529.785,333.008,0
3.639,-846.191,903.320,-649.902,-1000.000,0
3.643,-226.074,-262.695,-647.949,-260.742,0
3.647,-1000.000,-1000.000,-412.598,-884.277,0
3.651,-419.434,-837.891,-484.375,838.379,0
3.655,-957.520,709.473,-645.996,-784.180,0
3.659,678.223,486.328,-624.512,-907.227,0
3.663,-961.914,-1000.000,-510.742,833.496,0
3.667,-835.449,-852.539,-546.387,889.648,0
3.670,779.785,698.730,-605.469,-747.559,0
3.674,989.258,920.898,-590.820,-1000.000,0
3.678,-701.660,-703.125,-585.449,604.492,0
3.682,-1000.000,-1000.000,-509.766,-813.965,0
3.686,667.480,292.480,-598.145,-305.664,0
3.690,-951.660,961.914,-607.910,-1000.000,0
3.694,-569.824,-581.543,-572.266,343.750,0
3.698,-1000.000,-1000.000,-468.750,-784.180,0
3.702,262.695,-447.754,-566.406,460.938,0
3.706,-820.801,901.855,-579.590,-1000.000,0
3.709,-11.230,-158.203,-605.957,-503.418,0
3.713,-1000.000,-1000.000,-483.398,-971.191,0
3.717,-590.820,-884.766,-548.828,930.664,0
3.721,966.309,666.504,-582.520,-697.754,0
3.725,804.688,697.754,-510.254,-987.793,0
3.729,-869.141,-1000.000,-551.270,747.070,0
3.733,-1000.000,-1000.000,-601.074,-952.148,0
3.737,670.410,614.258,-573.730,-655.273,0
3.741,-981.934,975.098,-578.613,-1000.000,0
3.745,-713.867,-632.812,-649.902,596.680,0
3.749,-1000.000,-1000.000,-489.746,-799.316,0
3.752,650.391,103.516,-510.254,-77.148,0
3.756,-907.227,946.777,-575.195,-1000.000,0
3.760,-470.703,-515.625,-621.582,153.809,0
3.764,-1000.000,-1000.000,-495.605,-790.039,0
3.768,187.012,-648.926,-496.094,656.738,0
3.772,-808.594,835.938,-572.754,-930.176,0
3.776,192.871,38.574,-645.020,-727.051,0
3.780,-1000.000,-1000.000,-470.215,960.938,0
3.784,-717.285,-898.926,-486.816,953.613,0
3.788,898.438,667.480,-601.562,-695.312,0
3.792,892.090,799.805,-634.277,-1000.000,0
3.795,-804.199,-915.039,-567.383,653.809,0
3.799,-1000.000,-1000.000,-444.824,-909.180,0
3.803,676.270,524.902,-557.129,-607.910,0
3.807,-988.770,979.004,-628.906,-1000.000,0
3.811,-698.242,-602.539,-599.609,586.426,0
3.815,-1000.000,-1000.000,-213.867,-788.086,0
3.819,549.316,-132.812,-400.391,38.086,0
3.823,-875.488,935.059,-656.738,-1000.000,0
3.827,-343.750,-404.785,-618.652,140.625,0
3.831,-1000.000,-1000.000,-481.934,-796.387,0
3.834,-167.969,-743.652,-582.520,722.656,0
3.838,-879.395,782.227,-633.789,-867.188,0
3.842,428.711,255.371,-568.848,-765.625,0
3.846,-1000.000,-1000.000,-464.844,941.406,0
3.850,-830.078,-921.875,-543.457,859.863,0
3.854,808.594,667.480,-598.145,-732.910,0
3.858,982.910,870.605,-523.926,-1000.000,0
3.862,-719.238,-822.754,-596.191,634.766,0
3.866,-1000.000,-1000.000,-591.309,-878.906,0
3.870,681.152,435.547,-583.008,-525.391,0
3.874,-994.629,973.145,-612.793,-1000.000,0
3.877,-687.988,-595.215,-651.855,484.375,0
3.881,-1000.000,-1000.000,-471.191,-785.156,0
3.885,439.453,-344.238,-537.109,306.641,0
3.889,-941.895,816.406,-608.398,-1000.000,0
3.893,-266.602,-312.500,-618.652,-248.047,0
3.897,-1000.000,-1000.000,-479.492,-883.789,0
3.901,-336.426,-831.543,-529.297,837.891,0
3.905,-922.363,722.168,-522.461,-778.320,0
3.909,635.254,465.820,-604.004,-913.574,0
3.913,-982.910,-1000.000,-564.941,835.449,0
3.917,-929.688,-947.266,-515.137,989.258,0
3.920,743.164,668.945,-539.551,-711.426,0
3.924,-994.141,926.270,-602.051,-1000.000,0
3.928,-709.473,-732.422,-645.020,624.023,0
3.932,-1000.000,-1000.000,-458.496,-839.844,0
3.936,665.527,332.031,-544.922,-387.695,0
3.940,-946.289,963.867,-638.184,-1000.000,0
3.944,-580.078,-579.590,-606.934,378.418,0
3.948,-1000.000,-1000.000,-298.828,-775.879,0
3.952,325.195,-521.973,-471.680,470.703,0
3.956,-821.289,877.441,-657.715,-1000.000,0
3.959,-13.672,-159.180,-607.910,-310.547,0
3.963,-1000.000,-1000.000,-405.762,-901.367,0
3.967,-632.324,-876.953,-518.555,903.320,0
3.971,961.426,672.852,-646.973,-697.266,0
3.975,756.348,666.504,-600.586,-933.105,0
3.979,-923.340,-1000.000,-555.664,830.078,0
3.983,-1000.000,-1000.000,-578.613,991.699,0
3.987,666.504,618.652,-605.469,-713.867,0
3.991,-981.445,973.633,-573.242,-1000.000,0
3.995,-713.867,-641.113,-605.469,614.258,0
3.999,-1000.000,-1000.000,-475.586,-821.777,0
4.002,650.391,145.508,-561.523,-294.434,0
4.006,-907.227,948.730,-611.328,-1000.000,0
4.010,-471.191,-532.227,-616.699,276.367,0
4.014,-1000.000,-1000.000,-489.258,-789.062,0
4.018,189.453,-640.137,-554.199,609.863,0
4.022,-808.105,838.867,-584.473,-956.055,0
4.026,192.383,16.113,-612.793,-565.430,0
4.030,-1000.000,-1000.000,-496.582,-974.609,0
4.034,-727.051,-896.973,-538.574,927.734,0
4.038,905.273,668.945,-543.457,-684.570,0
4.042,844.238,785.156,-571.777,-1000.000,0
4.045,-857.910,-931.641,-620.117,666.992,0
4.049,-1000.000,-1000.000,-570.312,-924.805,0
4.053,673.340,536.133,-506.836,-634.277,0
4.057,-989.258,980.957,-494.141,-1000.000,0
4.061,-698.242,-605.957,-637.695,592.773,0
4.065,-1000.000,-1000.000,-473.633,-795.410,0
4.069,547.852,-82.520,-548.340,-37.109,0
4.073,-868.164,941.895,-634.277,-1000.000,0
4.077,-354.492,-425.293,-621.582,150.391,0
4.081,-1000.000,-1000.000,-472.168,-797.852,0
4.084,-37.598,-727.051,-549.316,707.520,0
4.088,-843.262,796.387,-620.605,-882.324,0
4.092,410.645,231.934,-642.578,-738.770,0
4.096,-1000.000,-1000.000,-459.473,964.355,0
4.100,-827.148,-919.922,-387.695,953.125,0
4.104,833.496,670.410,-593.262,-697.266,0
4.108,928.223,853.027,-645.996,-1000.000,0
4.112,-786.621,-844.238,-583.984,643.066,0
4.116,-1000.000,-1000.000,-528.809,-881.836,0
4.120,692.383,446.289,-608.398,-527.832,0
4.124,991.699,974.121,-633.301,-1000.000,0
4.127,-691.406,-593.750,-585.449,499.512,0
4.131,-837.402,-1000.000,-428.223,-874.023,0
4.135,564.941,-292.480,-546.387,93.750,0
4.139,-891.113,916.016,-601.074,-1000.000,0
4.143,-212.891,-302.246,-540.527,-77.637,0
4.147,-1000.000,-1000.000,-433.594,-837.891,0
4.151,-272.461,-813.965,-581.055,777.344,0
4.155,-905.762,728.516,-622.070,-832.031,0
4.159,626.465,445.312,-591.797,-829.590,0
4.163,-978.516,-1000.000,-504.883,903.809,0
4.167,-930.664,-945.312,-556.641,971.680,0
4.170,743.164,670.410,-616.699,-705.566,0
4.174,-994.141,917.480,-596.191,-1000.000,0
4.178,-709.473,-748.047,-611.816,627.441,0
4.182,-1000.000,-1000.000,-477.051,-847.168,0
4.186,666.992,350.586,-562.500,-412.598,0
4.190,-949.219,966.797,-615.723,-1000.000,0
4.194,-584.473,-581.543,-624.023,392.578,0
4.198,-1000.000,-1000.000,-472.168,-775.391,0
4.202,324.707,-498.535,-520.508,356.445,0
4.206,-817.871,882.324,-526.367,-1000.000,0
4.209,-17.090,-181.152,-618.652,-294.434,0
4.213,-1000.000,-1000.000,-501.465,-899.414,0
4.217,-555.176,-871.094,-514.648,867.676,0
4.221,995.117,677.734,-630.859,-749.023,0
4.225,742.676,647.949,-628.418,-917.969,0
4.229,-917.480,-1000.000,-543.457,836.426,0
4.233,-1000.000,-1000.000,-496.094,989.746,0
4.237,666.504,625.977,-586.914,-713.379,0
4.241,-981.445,969.238,-648.438,-1000.000,0
4.245,-713.379,-651.367,-620.117,613.770,0
4.249,-1000.000,-1000.000,-405.762,-819.824,0
4.252,656.250,181.152,-542.969,-298.828,0
4.256,-920.898,947.266,-654.785,-1000.000,0
4.260,-501.953,-550.293,-587.891,297.363,0
4.264,-1000.000,-1000.000,-328.613,-781.250,0
4.268,207.520,-620.117,-515.137,562.012,0
4.272,-805.176,847.168,-644.043,-990.723,0
4.276,190.430,-19.531,-599.121,-519.531,0
4.280,-1000.000,-1000.000,-350.586,-963.379,0
4.284,-710.938,-894.043,-488.770,927.734,0
4.288,917.969,668.457,-655.273,-697.754,0
4.292,840.820,775.879,-590.820,-986.328,0
4.295,-856.934,-941.895,-580.078,744.141,0
4.299,-1000.000,-1000.000,-592.773,-942.871,0
4.303,673.828,546.875,-623.047,-641.113,0
4.307,-988.770,981.934,-573.242,-1000.000,0
4.311,-697.754,-608.887,-608.398,596.191,0
4.315,-1000.000,-1000.000,-465.820,-798.340,0
4.319,551.758,-35.645,-529.297,-78.613,0
4.323,-876.953,945.312,-574.219,-1000.000,0
4.327,-381.836,-449.219,-600.098,161.133,0
4.331,-1000.000,-1000.000,-479.004,-790.039,0
4.334,-9.766,-711.426,-548.828,656.250,0
4.338,-836.426,806.152,-544.434,-929.688,0
4.342,408.203,194.336,-585.938,-727.051,0
4.346,-1000.000,-1000.000,-498.047,960.938,0
4.350,-798.340,-915.527,-519.043,953.613,0
4.354,860.840,669.434,-608.887,-702.148,0
4.358,921.875,846.680,-610.840,-1000.000,0
4.362,-784.668,-854.004,-597.656,641.113,0
4.366,-1000.000,-1000.000,-494.629,-979.980,0
4.370,679.688,457.520,-478.027,-578.613,0
4.374,-996.094,975.586,-535.645,-1000.000,0
4.377,-682.129,-593.750,-642.090,548.340,0
4.381,-1000.000,-1000.000,-432.617,-786.133,0
4.385,442.871,-265.137,-542.480,141.602,0
4.389,-841.797,925.293,-666.504,-1000.000,0
4.393,-254.395,-328.125,-645.508,-63.965,0
4.397,-1000.000,-1000.000,-437.500,-832.520,0
4.401,-223.145,-799.316,-528.809,750.977,0
4.405,-889.648,740.723,-654.297,-858.887,0
4.409,622.070,409.180,-634.277,-824.219,0
4.413,-985.840,-1000.000,-435.547,902.344,0
4.417,-887.207,-940.918,-511.230,971.191,0
4.420,791.992,669.922,-637.207,-705.566,0
4.424,995.605,909.180,-607.422,-1000.000,0
4.428,-705.566,-761.719,-536.133,627.441,0
4.432,-1000.000,-1000.000,-402.832,-844.727,0
4.436,684.082,364.258,-592.285,-432.617,0
4.440,997.070,967.773,-631.836,-1000.000,0
4.444,-667.969,-582.031,-612.793,458.008,0
4.448,-1000.000,-1000.000,-460.449,-779.297,0
4.452,325.195,-468.750,-551.270,353.027,0
4.456,-816.406,890.625,-597.168,-1000.000,0
4.459,-30.273,-204.102,-541.504,-271.973,0
4.463,-1000.000,-1000.000,-450.195,-885.254,0
4.467,-441.406,-863.770,-556.641,839.355,0
4.471,-956.543,683.105,-606.934,-779.785,0
4.475,726.562,612.793,-612.305,-913.086,0
4.479,-917.480,-1000.000,-538.574,835.449,0
4.483,-978.027,-990.234,-553.223,989.258,0
4.487,707.031,634.277,-568.848,-713.867,0
4.491,-988.281,964.355,-543.945,-1000.000,0
4.495,-710.938,-661.133,-634.277,611.816,0
4.499,-1000.000,-1000.000,-481.934,-813.965,0
4.502,668.457,204.590,-522.949,-311.523,0
4.506,-954.590,943.359,-599.609,-1000.000,0
4.510,-565.918,-564.453,-612.305,369.141,0
4.514,-1000.000,-1000.000,-440.430,-782.715,0
4.518,208.984,-596.191,-470.215,558.105,0
4.522,-806.641,857.910,-590.820,-987.305,0
4.526,191.406,-58.105,-655.273,-510.254,0
4.530,-1000.000,-1000.000,-447.266,-959.961,0
4.534,-656.250,-890.137,-522.949,926.270,0
4.538,959.961,667.480,-636.719,-696.777,0
4.542,828.613,755.371,-614.258,-989.746,0
4.545,-852.539,-957.031,-533.691,751.465,0
4.549,-1000.000,-1000.000,-445.801,-965.332,0
4.553,673.340,557.617,-567.871,-675.781,0
4.557,-988.770,982.422,-609.863,-1000.000,0
4.561,-695.312,-609.863,-573.730,597.168,0
4.565,-1000.000,-1000.000,-359.863,-797.363,0
4.569,564.941,-11.230,-540.039,-120.117,0
4.573,-908.203,934.082,-660.156,-1000.000,0
4.577,-453.613,-479.492,-578.125,242.188,0
4.581,-1000.000,-1000.000,-256.348,-790.039,0
4.584,-6.836,-692.871,-484.863,650.879,0
4.588,-839.355,812.500,-680.664,-925.781,0
4.592,410.156,135.742,-580.078,-708.984,0
4.596,-1000.000,-1000.000,-430.664,969.238,0
4.600,-761.719,-908.691,-532.227,950.195,0
4.604,894.043,666.992,-620.117,-693.848,0
4.608,913.086,836.914,-525.391,-1000.000,0
4.612,-782.227,-867.676,-563.965,654.297,0
4.616,-1000.000,-1000.000,-601.562,-910.645,0
4.620,679.688,472.656,-609.375,-611.328,0
4.624,-996.094,976.562,-578.125,-1000.000,0
4.627,-680.664,-595.215,-621.582,580.566,0
4.631,-1000.000,-1000.000,-458.008,-784.668,0
4.635,452.637,-232.422,-540.039,120.117,0
4.639,-862.793,925.781,-622.070,-1000.000,0
4.643,-315.430,-352.539,-615.723,83.984,0
4.647,-1000.000,-1000.000,-448.242,-802.734,0
4.651,-219.238,-780.762,-524.902,733.398,0
4.655,-893.066,757.812,-636.230,-849.121,0
4.659,623.535,367.188,-623.535,-823.730,0
4.663,-991.211,-1000.000,-497.070,904.785,0
4.667,-866.211,-935.059,-526.367,970.703,0
4.670,814.941,668.457,-531.250,-704.102,0
4.674,990.723,902.344,-598.145,-1000.000,0
4.678,-704.590,-774.414,-641.113,634.766,0
4.682,-1000.000,-1000.000,-446.777,-862.793,0
4.686,684.082,381.836,-548.828,-481.445,0
4.690,997.070,968.750,-655.762,-1000.000,0
4.694,-666.504,-583.008,-601.074,479.004,0
4.698,-1000.000,-1000.000,-306.152,-776.367,0
4.702,338.379,-446.289,-495.117,336.914,0
4.706,-834.473,892.090,-671.387,-1000.000,0
4.709,-158.691,-228.027,-630.371,-151.367,0
4.713,-1000.000,-1000.000,-363.770,-852.051,0
4.717,-425.781,-856.934,-478.027,823.242,0
4.721,-965.820,687.500,-653.809,-775.391,0
4.725,728.516,568.359,-603.027,-893.555,0
4.729,-923.340,-1000.000,-499.512,855.957,0
4.733,-960.938,-976.074,-534.668,984.375,0
4.737,729.004,644.043,-612.305,-710.449,0
4.741,-992.188,958.496,-584.473,-1000.000,0
4.745,-709.961,-674.316,-526.367,622.559,0
4.749,-1000.000,-1000.000,-418.457,-836.914,0
4.752,668.457,232.422,-586.914,-379.395,0
4.756,-954.102,946.289,-647.949,-1000.000,0
4.760,-564.453,-568.848,-630.371,375.000,0
4.764,-1000.000,-1000.000,-488.281,-778.809,0
4.768,219.727,-586.426,-570.312,548.828,0
4.772,-816.895,854.492,-606.934,-982.422,0
4.776,65.430,-99.609,-610.840,-362.793,0
4.780,-1000.000,-1000.000,-474.609,-908.691,0
4.784,-638.184,-885.742,-543.457,902.832,0
4.788,950.684,666.016,-547.363,-684.082,0
4.792,831.055,740.234,-571.289,-996.094,0
4.795,-852.539,-970.703,-593.750,760.742,0
4.799,-1000.000,-1000.000,-563.477,-993.652,0
4.803,673.340,573.730,-588.867,-718.750,0
4.807,-988.770,982.910,-613.281,-1000.000,0
4.811,-695.312,-612.793,-647.461,602.539,0
4.815,-1000.000,-1000.000,-430.176,-805.176,0
4.819,564.941,19.531,-489.258,-178.223,0
4.823,-908.203,936.035,-626.465,-1000.000,0
4.827,-452.637,-491.699,-637.695,263.184,0
4.831,-1000.000,-1000.000,-427.734,-789.062,0
4.834,0.000,-681.152,-471.680,646.484,0
4.838,-843.262,798.828,-594.238,-926.758,0
4.842,307.129,98.145,-639.160,-608.398,0
4.846,-1000.000,-1000.000,-423.828,-987.305,0
4.850,-745.605,-907.227,-412.598,932.617,0
4.854,886.230,667.969,-623.047,-685.547,0
4.858,915.527,825.195,-642.578,-1000.000,0
4.862,-782.227,-881.836,-568.359,659.668,0
4.866,-1000.000,-1000.000,-536.621,-923.340,0
4.870,684.570,486.328,-623.535,-635.254,0
4.874,998.535,977.539,-616.211,-1000.000,0
4.877,-680.664,-597.168,-574.219,587.891,0
4.881,-1000.000,-1000.000,-386.230,-789.551,0
4.885,504.395,-201.172,-537.109,28.320,0
4.889,-888.184,925.781,-647.949,-1000.000,0
4.893,-331.055,-375.488,-535.645,142.578,0
4.897,-1000.000,-1000.000,-366.211,-798.828,0
4.901,-212.402,-767.578,-555.664,730.957,0
4.905,-891.602,765.137,-636.719,-855.957,0
4.909,493.164,312.500,-616.699,-765.137,0
4.913,-1000.000,-1000.000,-483.398,950.195,0
4.917,-838.379,-927.734,-529.785,957.520,0
4.920,810.059,666.504,-606.934,-698.730,0
4.924,992.676,895.020,-578.125,-1000.000,0
4.928,-704.102,-786.133,-582.031,641.113,0
4.932,-1000.000,-1000.000,-490.723,-877.930,0
4.936,684.570,393.066,-558.105,-516.113,0
4.940,997.070,969.238,-532.715,-1000.000,0
4.944,-665.527,-583.984,-595.703,482.422,0
4.948,-1000.000,-1000.000,-451.660,-775.879,0
4.952,345.215,-430.664,-521.973,294.922,0
4.956,-843.750,890.625,-631.348,-1000.000,0
4.959,-222.656,-246.582,-648.438,-91.309,0
4.963,-1000.000,-1000.000,-467.773,-834.961,0
4.967,-411.621,-844.238,-495.117,810.059,0
4.971,-970.215,690.430,-608.887,-769.043,0
4.975,620.117,454.102,-619.629,-798.828,0
4.979,-970.703,-1000.000,-506.836,886.230,0
4.983,-926.758,-955.078,-465.820,968.750,0
4.987,740.723,641.602,-584.961,-702.148,0
4.991,-992.188,955.078,-645.020,-1000.000,0
4.995,-719.238,-694.336,-612.793,634.766,0
4.999,-1000.000,-1000.000,-417.969,-853.027,0
5.002,669.922,250.488,-561.523,-397.949,0
5.006,849.609,752.930,-671.875,-909.180,0
5.010,-639.648,-645.996,-599.121,452.637,0
5.014,-1000.000,-1000.000,-347.656,-813.965,0
5.018,207.031,-594.727,-513.672,541.504,0
5.022,-814.941,860.840,-644.531,-999.512,0
5.026,24.414,-119.629,-616.211,-381.836,0
5.030,-1000.000,-1000.000,-382.812,-918.945,0
5.034,-632.812,-883.301,-516.113,908.691,0
5.038,949.219,666.504,-666.016,-689.941,0
5.042,824.219,719.727,-591.309,-979.004,0
5.045,-859.863,-985.840,-547.363,779.297,0
5.049,-1000.000,-1000.000,-591.309,-997.070,0
5.053,672.363,583.984,-622.559,-717.285,0
5.057,-985.840,979.980,-572.754,-1000.000,0
5.061,-704.102,-621.094,-603.027,607.910,0
5.065,-1000.000,-1000.000,-438.477,-812.988,0
5.069,606.445,49.805,-524.414,-231.934,0
5.073,-913.086,941.406,-590.820,-1000.000,0
5.077,-452.637,-498.047,-596.191,269.531,0
5.081,-1000.000,-1000.000,-472.168,-791.992,0
5.084,1.465,-675.293,-559.570,642.578,0
5.088,-843.750,819.824,-547.363,-931.152,0
5.092,282.715,78.125,-589.844,-604.492,0
5.096,-1000.000,-1000.000,-487.793,-980.957,0
5.100,-735.840,-895.996,-508.789,927.246,0
5.104,889.648,665.527,-548.340,-692.383,0
5.108,803.223,717.285,-582.520,-929.199,0
5.112,-827.148,-933.594,-597.656,717.773,0
5.116,-913.574,-1000.000,-492.188,947.754,0
5.120,703.125,492.676,-499.023,-661.621,0
5.124,891.602,881.348,-597.656,-807.617,0
5.127,-707.520,-633.301,-625.000,660.645,0
5.131,-1000.000,-1000.000,-397.461,-826.172,0
5.135,457.031,-184.570,-549.805,-22.949,0
5.139,-868.652,933.105,-657.227,-1000.000,0
5.143,-338.867,-383.789,-640.625,151.367,0
5.147,-1000.000,-1000.000,-436.035,-800.781,0
5.151,-213.867,-762.207,-535.156,719.727,0
5.155,-892.578,770.020,-659.180,-870.605,0
5.159,526.367,304.688,-628.906,-746.094,0
5.163,-1000.000,-1000.000,-434.570,961.914,0
5.167,-844.727,-927.246,-501.465,954.590,0
5.170,817.871,673.340,-651.367,-702.637,0
5.174,985.840,878.906,-612.305,-1000.000,0
5.178,-702.148,-796.875,-539.062,641.113,0
5.182,-950.684,-1000.000,-483.398,-981.445,0
5.186,717.773,436.523,-597.656,-559.082,0
5.190,981.934,954.590,-621.582,-1000.000,0
5.194,-658.203,-578.125,-604.004,479.004,0
5.198,-1000.000,-1000.000,-421.875,-770.508,0
5.202,349.609,-395.020,-542.480,220.703,0
5.206,-844.238,901.855,-606.445,-1000.000,0
5.209,-223.145,-258.301,-528.320,19.531,0
5.213,-1000.000,-1000.000,-427.246,-811.035,0
5.217,-418.457,-844.238,-556.641,802.246,0
5.221,-966.797,699.219,-602.051,-764.648,0
5.225,707.031,526.367,-596.680,-891.602,0
5.229,-955.566,-1000.000,-535.645,871.094,0
5.233,-930.176,-951.660,-560.547,972.656,0
5.237,749.023,658.691,-598.145,-710.449,0
5.241,809.082,750.000,-604.492,-832.031,0
5.245,-785.156,-771.973,-604.492,703.125,0
5.249,-1000.000,-1000.000,-429.199,-881.348,0
5.252,651.855,256.836,-488.770,-395.508,0
5.256,-947.266,958.984,-582.520,-1000.000,0
5.260,-566.895,-573.242,-623.047,380.371,0
5.264,-1000.000,-1000.000,-456.543,-777.344,0
5.268,244.629,-555.664,-477.051,465.332,0
5.272,-822.754,865.234,-598.145,-1000.000,0
5.276,-8.789,-135.742,-654.297,-309.570,0
5.280,-1000.000,-1000.000,-435.547,-901.855,0
5.284,-629.395,-882.324,-516.602,901.367,0
5.288,950.684,666.504,-631.348,-690.918,0
5.292,806.152,707.031,-622.559,-958.984,0
5.295,-876.953,-996.582,-542.480,802.246,0
5.299,-1000.000,-1000.000,-472.168,998.047,0
5.303,670.898,597.656,-566.895,-715.332,0
5.307,-985.840,978.027,-607.422,-1000.000,0
5.311,-704.102,-625.000,-579.590,614.258,0
5.315,-1000.000,-1000.000,-333.008,-821.777,0
5.319,605.469,67.383,-526.367,-294.922,0
5.323,-913.086,938.965,-667.480,-1000.000,0
5.327,-452.148,-508.789,-588.379,276.367,0
5.331,-1000.000,-1000.000,-263.672,-789.062,0
5.334,5.859,-663.574,-484.863,616.699,0
5.338,-840.820,830.078,-671.875,-955.566,0
5.342,208.008,43.945,-600.098,-525.391,0
5.346,-1000.000,-1000.000,-467.285,-960.938,0
5.350,-632.324,-799.805,-529.297,824.219,0
5.354,917.969,701.172,-617.676,-722.656,0
5.358,882.812,789.551,-549.316,-1000.000,0
5.362,-794.922,-899.414,-546.387,691.895,0
5.366,-1000.000,-1000.000,-580.566,-927.246,0
5.370,677.246,513.672,-608.887,-632.812,0
5.374,-992.188,978.516,-573.242,-1000.000,0
5.377,-689.941,-601.562,-619.629,601.562,0
5.381,-1000.000,-1000.000,-463.867,-805.176,0
5.385,507.812,-151.855,-550.781,-75.684,0
5.389,-873.047,935.547,-634.277,-1000.000,0
5.393,-341.797,-392.090,-611.816,189.941,0
5.397,-1000.000,-1000.000,-447.754,-816.406,0
5.401,-180.664,-752.441,-522.461,713.867,0
5.405,-882.812,775.879,-541.992,-887.695,0
5.409,430.664,271.484,-603.027,-738.281,0
5.413,-1000.000,-1000.000,-511.230,963.867,0
5.417,-830.078,-923.340,-515.137,953.613,0
5.420,808.594,667.969,-612.305,-696.777,0
5.424,983.398,875.977,-617.676,-1000.000,0
5.428,-718.262,-813.477,-604.004,643.066,0
5.432,-1000.000,-1000.000,-445.801,-881.836,0
5.436,682.617,421.387,-562.988,-524.414,0
5.440,-999.023,971.680,-648.438,-1000.000,0
5.444,-673.828,-587.891,-598.145,492.188,0
5.448,-1000.000,-1000.000,-315.430,-781.250,0
5.452,393.066,-374.512,-491.699,146.484,0
5.456,-845.703,905.273,-665.527,-1000.000,0
5.459,-225.098,-270.020,-625.000,-68.359,0
5.463,-1000.000,-1000.000,-462.891,-847.656,0
5.467,-419.922,-835.449,-543.945,808.105,0
5.471,-957.031,706.543,-641.113,-798.340,0
5.475,649.414,484.375,-608.398,-836.914,0
5.479,-990.234,-1000.000,-470.703,905.273,0
5.483,-927.734,-949.707,-528.809,971.680,0
5.487,743.652,666.016,-615.723,-706.055,0
5.491,-994.141,935.547,-592.285,-1000.000,0
5.495,-709.473,-712.891,-517.090,627.930,0
5.499,-1000.000,-1000.000,-389.648,-848.145,0
5.502,667.969,291.016,-586.914,-411.133,0
5.506,-952.637,956.543,-625.000,-1000.000,0
5.510,-567.871,-575.195,-610.352,383.301,0
5.514,-1000.000,-1000.000,-479.492,-775.879,0
5.518,250.977,-546.387,-563.965,395.020,0
5.522,-822.754,867.188,-597.168,-1000.000,0
5.526,-8.789,-145.020,-604.980,-298.828,0
5.530,-1000.000,-1000.000,-493.164,-898.438,0
5.534,-625.488,-881.836,-552.734,886.719,0
5.538,959.473,667.480,-581.543,-712.891,0
5.542,656.250,685.059,-585.449,-824.219,0
5.545,-957.031,-1000.000,-564.453,871.094,0
5.549,-988.770,-1000.000,-564.941,974.121,0
5.553,659.668,609.375,-550.293,-705.566,0
5.557,-981.934,975.586,-579.102,-1000.000,0
5.561,-706.543,-631.836,-655.273,614.258,0
5.565,-1000.000,-1000.000,-477.051,-821.777,0
5.569,617.188,100.098,-575.684,-294.434,0
5.573,-910.645,942.871,-652.832,-1000.000,0
5.577,-458.008,-519.043,-632.324,275.879,0
5.581,-1000.000,-1000.000,-425.781,-783.203,0
5.584,61.523,-650.879,-456.055,582.031,0
5.588,-834.473,833.496,-614.258,-976.562,0
5.592,207.520,36.133,-664.062,-523.926,0
5.596,-1000.000,-1000.000,-443.359,-961.914,0
5.600,-735.352,-898.926,-511.719,927.246,0
5.604,892.090,668.457,-642.090,-698.242,0
5.608,863.770,793.457,-630.371,-985.840,0
5.612,-840.332,-920.410,-528.320,742.188,0
5.616,-1000.000,-1000.000,-418.457,-937.012,0
5.620,684.570,523.926,-599.121,-636.230,0
5.624,999.512,979.004,-642.090,-1000.000,0
5.627,-695.801,-603.516,-572.266,600.098,0
5.631,-899.414,-1000.000,-394.043,-895.508,0
5.635,606.934,-119.629,-546.387,-119.141,0
5.639,-909.180,935.547,-644.531,-1000.000,0
5.643,-325.195,-401.855,-549.316,147.461,0
5.647,-1000.000,-1000.000,-413.086,-794.922,0
5.651,-196.777,-744.141,-568.359,694.336,0
5.655,-887.207,782.227,-601.074,-895.508,0
5.659,432.617,253.906,-564.453,-735.840,0
5.663,-1000.000,-1000.000,-477.539,963.379,0
5.667,-833.496,-921.875,-544.434,953.125,0
5.670,819.824,668.457,-595.703,-697.266,0
5.674,944.824,866.699,-588.379,-1000.000,0
5.678,-769.043,-826.660,-599.121,642.578,0
5.682,-1000.000,-1000.000,-481.445,-880.371,0
5.686,681.152,434.082,-554.199,-527.832,0
5.690,-999.512,972.656,-625.488,-1000.000,0
5.694,-674.805,-589.844,-638.184,508.789,0
5.698,-1000.000,-1000.000,-431.641,-782.715,0
5.702,396.973,-348.633,-524.414,142.578,0
5.706,-845.215,913.086,-626.953,-1000.000,0
5.709,-225.586,-278.809,-641.602,-68.359,0
5.713,-1000.000,-1000.000,-462.891,-845.703,0
5.717,-414.062,-825.684,-484.863,800.293,0
5.721,-955.078,717.285,-600.098,-807.129,0
5.725,648.926,471.191,-628.906,-834.961,0
5.729,-989.746,-1000.000,-481.934,905.273,0
5.733,-927.734,-948.242,-458.008,971.680,0
5.737,743.652,669.434,-586.426,-706.055,0
5.741,-994.141,925.293,-663.574,-1000.000,0
5.745,-709.473,-730.469,-620.605,627.441,0
5.749,-1000.000,-1000.000,-407.227,-847.656,0
5.752,667.969,314.941,-559.082,-411.621,0
5.756,-953.125,960.449,-675.293,-1000.000,0
5.760,-566.895,-577.637,-602.051,385.742,0
5.764,-1000.000,-1000.000,-291.016,-776.367,0
5.768,242.676,-541.992,-486.816,416.504,0
5.772,-822.754,867.188,-655.273,-1000.000,0
5.776,-8.301,-152.832,-612.305,-302.734,0
5.780,-1000.000,-1000.000,-431.641,-901.367,0
5.784,-630.859,-878.418,-530.273,890.137,0
5.788,957.031,671.387,-639.160,-716.797,0
5.791,775.391,680.664,-632.812,-926.758,0
5.795,-905.273,-1000.000,-390.137,833.008,0
5.799,-1000.000,-1000.000,-273.438,991.211,0
5.803,667.969,614.258,-585.449,-713.867,0
5.807,-981.445,973.145,-605.469,-1000.000,0
5.811,-713.867,-637.695,-595.703,614.258,0
5.815,-1000.000,-1000.000,-463.379,-821.777,0
5.819,651.367,117.188,-545.898,-294.922,0
5.823,-910.645,942.871,-597.656,-1000.000,0
5.827,-464.844,-526.855,-613.770,275.391,0
5.831,-1000.000,-1000.000,-450.684,-781.738,0
5.834,129.883,-644.531,-542.969,573.242,0
5.838,-820.801,833.984,-556.152,-983.887,0
5.842,199.219,13.184,-587.891,-521.973,0
5.846,-1000.000,-1000.000,-464.844,-962.402,0
5.850,-737.793,-896.484,-515.137,927.734,0
5.854,896.484,668.945,-640.625,-698.242,0
5.858,847.168,785.156,-615.723,-985.840,0
5.862,-858.887,-930.176,-566.406,742.188,0
5.866,-1000.000,-1000.000,-486.816,-937.012,0
5.870,673.340,531.250,-580.566,-631.836,0
5.874,-989.258,979.492,-645.996,-1000.000,0
5.877,-698.242,-604.004,-628.906,596.191,0
5.881,-1000.000,-1000.000,-375.000,-798.828,0
5.885,549.316,-113.770,-522.949,-77.148,0
5.889,-874.512,935.059,-645.996,-1000.000,0
5.893,-345.215,-416.504,-632.324,155.273,0
5.897,-1000.000,-1000.000,-421.875,-795.410,0
5.901,-152.832,-739.258,-430.176,683.105,0
5.905,-875.000,784.668,-620.117,-905.273,0
5.909,426.270,238.770,-681.152,-733.398,0
5.913,-1000.000,-1000.000,-380.859,962.402,0
5.916,-835.449,-920.410,-424.805,953.125,0
5.920,823.730,670.410,-655.273,-696.777,0
5.924,930.664,854.492,-629.395,-1000.000,0
5.928,-787.109,-841.309,-601.074,642.578,0
5.932,-1000.000,-1000.000,-526.367,-879.395,0
5.936,679.688,440.918,-601.074,-531.250,0
5.940,-996.094,974.121,-626.465,-1000.000,0
5.944,-682.617,-590.820,-605.469,523.926,0
5.948,-1000.000,-1000.000,-383.789,-785.156,0
5.952,441.406,-320.801,-536.621,142.578,0
5.956,-843.750,916.504,-628.418,-1000.000,0
5.959,-230.469,-296.387,-593.750,-71.289,0
5.963,-1000.000,-1000.000,-434.082,-835.938,0
5.967,-363.281,-818.848,-539.551,759.277,0
5.971,-937.012,723.633,-613.770,-851.562,0
5.975,640.625,455.078,-501.953,-825.684,0
5.979,-985.840,-1000.000,-454.590,902.832,0
5.983,-928.711,-946.289,-558.105,971.191,0
5.987,743.164,669.922,-616.211,-705.566,0
5.991,-994.629,919.922,-616.211,-1000.000,0
5.995,-709.473,-743.164,-621.582,626.953,0
5.999,-1000.000,-1000.000,-496.094,-844.727,0
6.002,665.527,343.750,-544.434,-418.457,0
6.006,-946.289,965.820,-605.957,-1000.000,0
6.010,-580.078,-580.566,-609.375,423.828,0
6.014,-1000.000,-1000.000,-404.297,-776.855,0
6.018,325.195,-512.695,-455.566,354.492,0
6.022,-819.824,879.395,-598.145,-1000.000,0
6.026,-14.648,-168.945,-658.691,-279.785,0
6.030,-1000.000,-1000.000,-446.777,-893.555,0
6.034,-605.469,-874.512,-526.367,861.328,0
6.038,973.145,674.805,-652.344,-753.418,0
6.041,751.465,657.227,-641.602,-917.480,0
6.045,-921.387,-1000.000,-522.949,835.938,0
6.049,-1000.000,-1000.000,-487.305,989.746,0
6.053,666.504,623.047,-575.684,-713.867,0
6.057,-981.934,970.215,-620.117,-1000.000,0
6.061,-713.867,-644.531,-555.176,613.770,0
6.065,-1000.000,-1000.000,-209.961,-819.824,0
6.069,650.391,145.508,-489.258,-298.828,0
6.073,-905.762,941.895,-679.688,-1000.000,0
6.077,-473.145,-541.016,-603.027,299.316,0
6.081,-1000.000,-1000.000,-461.914,-780.762,0
6.084,207.031,-632.812,-569.824,562.012,0
6.088,-804.199,839.844,-641.113,-990.723,0
6.092,190.430,-3.906,-605.469,-519.531,0
6.096,-1000.000,-1000.000,-440.430,-963.379,0
6.100,-716.797,-895.020,-518.555,927.734,0
6.104,913.574,668.457,-621.582,-698.242,0
6.108,842.285,779.785,-547.363,-985.840,0
6.112,-856.934,-936.035,-548.340,742.188,0
6.116,-1000.000,-1000.000,-586.914,-937.012,0
6.120,673.340,537.109,-605.469,-631.836,0
6.124,-988.770,981.445,-600.098,-1000.000,0
6.127,-698.242,-606.934,-626.953,596.680,0
6.131,-1000.000,-1000.000,-456.055,-798.828,0
6.135,547.363,-66.895,-538.086,-77.637,0
6.139,-866.211,942.871,-612.305,-1000.000,0
6.143,-356.934,-433.105,-613.770,154.785,0
6.147,-1000.000,-1000.000,-445.312,-790.039,0
6.151,-10.742,-723.633,-520.508,656.738,0
6.155,-835.449,798.340,-541.016,-929.688,0
6.159,406.738,222.168,-595.215,-727.051,0
6.163,-1000.000,-1000.000,-500.488,960.938,0
6.166,-828.125,-918.945,-525.391,953.613,0
6.170,833.008,670.410,-628.418,-696.777,0
6.174,928.223,850.586,-628.418,-1000.000,0
6.178,-786.621,-847.656,-606.934,641.602,0
6.182,-1000.000,-1000.000,-458.984,-877.441,0
6.186,679.688,449.219,-567.871,-536.133,0
6.190,-996.094,974.609,-651.367,-1000.000,0
6.194,-682.617,-591.797,-607.910,547.852,0
6.198,-1000.000,-1000.000,-311.035,-788.086,0
6.202,440.430,-300.781,-490.234,142.578,0
6.206,-837.402,916.992,-669.434,-1000.000,0
6.209,-238.770,-312.500,-625.977,-71.289,0
6.213,-1000.000,-1000.000,-459.473,-836.426,0
6.217,-237.305,-811.035,-549.805,762.207,0
6.221,-883.789,740.234,-634.766,-858.398,0
6.225,611.328,426.270,-605.469,-815.918,0
6.229,-979.492,-1000.000,-487.305,904.297,0
6.233,-727.539,-748.047,-535.156,775.391,0
6.237,827.637,746.094,-611.328,-781.250,0
6.241,970.703,879.883,-584.961,-994.629,0
6.245,-692.871,-737.305,-522.949,610.840,0
6.249,-1000.000,-1000.000,-424.316,-838.379,0
6.252,673.828,352.539,-594.238,-420.410,0
6.256,-970.215,967.285,-627.441,-1000.000,0
6.260,-617.676,-581.543,-562.012,433.594,0
6.264,-1000.000,-1000.000,-430.176,-778.809,0
6.268,324.707,-493.652,-574.707,355.469,0
6.272,-815.918,884.766,-607.422,-1000.000,0
6.276,-20.020,-182.129,-608.887,-296.387,0
6.280,-1000.000,-1000.000,-484.863,-894.531,0
6.284,-488.281,-870.117,-544.434,851.074,0
6.288,-975.586,679.199,-555.664,-770.996,0
6.291,730.957,641.602,-570.312,-914.551,0
6.295,-912.109,-1000.000,-564.941,835.938,0
6.299,-1000.000,-999.023,-550.293,989.258,0
6.303,666.992,628.418,-543.945,-713.867,0
6.307,-981.445,968.750,-586.426,-1000.000,0
6.311,-712.402,-653.809,-658.203,612.305,0
6.315,-1000.000,-1000.000,-447.266,-815.918,0
6.319,663.086,188.965,-520.508,-307.129,0
6.323,-939.941,954.102,-638.672,-1000.000,0
6.327,-538.086,-558.105,-626.465,355.957,0
6.331,-1000.000,-1000.000,-399.414,-781.250,0
6.334,208.496,-513.184,-462.402,363.770,0
6.338,-806.641,886.719,-590.820,-1000.000,0
6.342,190.430,-40.527,-649.902,-485.840,0
6.346,-1000.000,-1000.000,-432.129,-979.004,0
6.350,-716.797,-896.484,-415.527,933.105,0
6.354,913.574,668.457,-613.281,-697.754,0
6.358,842.285,774.414,-632.324,-987.793,0
6.362,-856.934,-944.336,-535.156,747.559,0
6.366,-1000.000,-1000.000,-500.000,-952.148,0
6.370,678.711,550.781,-620.117,-655.273,0
6.374,-995.117,982.422,-634.277,-1000.000,0
6.377,-695.312,-609.375,-590.332,594.238,0
6.381,-989.258,-1000.000,-397.949,-792.480,0
6.385,588.379,-30.273,-553.223,-91.309,0
6.389,-898.438,943.848,-645.996,-1000.000,0
6.393,-386.719,-454.102,-536.621,238.281,0
6.397,-1000.000,-1000.000,-436.523,-786.133,0
6.401,-9.277,-707.520,-578.125,649.414,0
6.405,-837.402,808.105,-613.281,-926.270,0
6.409,407.227,185.059,-565.918,-677.246,0
6.413,-1000.000,-1000.000,-450.195,982.910,0
6.416,-819.336,-914.551,-546.387,944.824,0
6.420,841.309,668.457,-620.117,-692.383,0
6.424,926.270,847.656,-541.016,-1000.000,0
6.428,-785.645,-853.516,-551.270,644.531,0
6.432,-1000.000,-1000.000,-520.020,-883.789,0
6.436,679.199,458.008,-582.031,-560.547,0
6.440,-996.094,975.586,-547.852,-1000.000,0
6.444,-681.641,-593.750,-607.422,579.590,0
6.448,-1000.000,-1000.000,-452.637,-786.133,0
6.452,447.266,-261.719,-535.156,131.836,0
6.456,-851.562,925.781,-649.414,-1000.000,0
6.459,-279.297,-329.590,-651.855,32.227,0
6.463,-1000.000,-1000.000,-481.934,-812.500,0
6.467,-238.770,-794.434,-518.066,739.258,0
6.471,-896.973,747.070,-619.141,-852.539,0
6.475,621.582,408.691,-630.371,-825.684,0
6.479,-976.562,-1000.000,-487.305,902.344,0
6.483,-931.641,-940.918,-466.309,971.680,0
6.487,743.652,669.434,-578.125,-706.055,0
6.491,-994.141,909.668,-638.672,-1000.000,0
6.495,-708.008,-761.230,-610.840,625.488,0
6.499,-1000.000,-1000.000,-431.641,-840.332,0
6.502,684.082,364.746,-572.266,-429.199,0
6.506,997.070,968.262,-657.715,-1000.000,0
6.510,-667.480,-582.520,-613.281,477.539,0
6.514,-1000.000,-1000.000,-402.344,-779.297,0
6.518,329.590,-464.844,-525.879,350.586,0
6.522,-824.219,895.508,-630.371,-1000.000,0
6.526,-65.918,-200.195,-618.652,-247.070,0
6.530,-1000.000,-1000.000,-337.402,-878.418,0
6.534,-493.652,-864.746,-456.055,835.449,0
6.538,-983.887,682.617,-661.133,-777.832,0
6.541,733.887,608.398,-613.770,-914.062,0
6.545,-912.598,-1000.000,-534.668,835.449,0
6.549,-1000.000,-989.746,-568.359,989.258,0
6.553,666.992,633.789,-630.859,-713.867,0
6.557,-981.445,964.355,-594.727,-1000.000,0
6.561,-711.914,-661.133,-619.629,612.305,0
6.565,-1000.000,-1000.000,-465.332,-814.941,0
6.569,667.480,203.125,-544.922,-310.059,0
6.573,-951.660,946.289,-563.477,-1000.000,0
6.577,-561.035,-560.059,-589.355,360.840,0
6.581,-1000.000,-1000.000,-475.098,-780.273,0
6.584,212.402,-599.121,-555.664,555.664,0
6.588,-810.547,855.469,-570.801,-985.840,0
6.592,150.391,-57.617,-610.840,-462.891,0
6.596,-1000.000,-1000.000,-488.770,-937.988,0
6.600,-695.312,-884.277,-519.531,912.598,0
6.604,916.016,665.039,-597.656,-690.918,0
6.608,741.211,671.387,-606.934,-891.113,0
6.612,-890.137,-983.887,-569.824,786.621,0
6.616,-1000.000,-1000.000,-504.395,-984.375,0
6.620,665.527,552.734,-504.883,-672.852,0
6.624,-986.328,984.863,-598.145,-1000.000,0
6.627,-695.801,-609.863,-649.902,593.262,0
6.631,-1000.000,-1000.000,-433.105,-791.992,0
6.635,564.453,-17.090,-564.453,-93.750,0
6.639,-907.715,939.941,-666.504,-1000.000,0
6.643,-452.637,-467.285,-637.207,252.930,0
6.647,-1000.000,-1000.000,-443.848,-785.645,0
6.651,-6.836,-694.824,-544.434,647.949,0
6.655,-839.844,816.406,-654.785,-925.781,0
6.659,408.203,161.133,-660.156,-665.039,0
6.663,-1000.000,-1000.000,-367.188,988.281,0
6.666,-793.457,-912.109,-389.648,942.383,0
6.670,864.746,668.457,-648.438,-691.406,0
6.674,920.410,840.332,-625.977,-1000.000,0
6.678,-784.180,-863.770,-520.020,648.926,0
6.682,-1000.000,-1000.000,-474.609,-895.508,0
6.686,679.688,470.215,-602.051,-583.008,0
6.690,-996.094,976.562,-615.234,-1000.000,0
6.694,-680.664,-595.215,-601.074,578.613,0
6.698,-1000.000,-1000.000,-405.273,-781.250,0
6.702,453.613,-234.375,-531.738,123.047,0
6.706,-864.746,927.246,-610.840,-1000.000,0
6.709,-321.289,-349.121,-531.738,117.676,0
6.713,-1000.000,-1000.000,-405.273,-794.922,0
6.717,-217.773,-782.227,-549.805,729.004,0
6.721,-892.578,756.348,-608.398,-848.633,0
6.725,592.285,370.117,-594.727,-813.477,0
6.729,-996.094,-1000.000,-503.418,913.086,0
6.733,-892.578,-935.059,-541.016,968.262,0
6.737,778.809,667.480,-587.891,-704.102,0
6.741,998.535,907.227,-583.008,-1000.000,0
6.745,-706.055,-769.531,-630.859,628.906,0
6.749,-1000.000,-1000.000,-514.648,-848.145,0
6.752,684.082,382.324,-544.434,-447.266,0
6.756,997.559,968.750,-586.426,-1000.000,0
6.760,-666.504,-583.496,-619.141,477.539,0
6.764,-1000.000,-1000.000,-442.871,-776.855,0
6.768,336.914,-449.219,-468.262,345.703,0
6.772,-832.520,894.531,-587.402,-1000.000,0
6.776,-143.555,-218.750,-665.039,-190.430,0
6.780,-1000.000,-1000.000,-466.309,-862.305,0
6.784,-427.734,-858.887,-529.785,827.637,0
6.788,-964.355,687.500,-634.766,-773.926,0
6.791,726.562,592.285,-634.277,-915.039,0
6.795,-913.086,-1000.000,-514.160,835.449,0
6.799,-993.652,-981.445,-485.840,989.258,0
6.803,687.012,642.578,-590.820,-713.379,0
6.807,-984.863,959.961,-632.324,-1000.000,0
6.811,-711.426,-669.434,-588.379,614.746,0
6.815,-1000.000,-1000.000,-262.207,-820.801,0
6.819,668.457,222.168,-514.160,-331.543,0
6.823,-954.590,944.336,-677.734,-1000.000,0
6.827,-564.941,-568.359,-595.215,372.070,0
6.831,-1000.000,-1000.000,-416.504,-777.832,0
6.834,216.797,-589.355,-553.711,550.781,0
6.838,-814.453,857.910,-636.230,-988.281,0
6.842,99.121,-79.590,-599.609,-386.230,0
6.846,-1000.000,-1000.000,-450.195,-920.898,0
6.850,-643.066,-887.695,-528.320,808.105,0
6.854,953.125,666.504,-613.770,-721.191,0
6.858,830.566,748.535,-554.688,-977.051,0
6.862,-852.539,-964.844,-549.316,748.535,0
6.866,-1000.000,-1000.000,-576.172,-976.074,0
6.870,673.340,569.824,-600.098,-696.289,0
6.874,-989.258,983.398,-584.473,-1000.000,0
6.877,-695.312,-612.305,-613.770,599.609,0
6.881,-1000.000,-1000.000,-419.434,-800.293,0
6.885,564.941,14.160,-527.344,-149.902,0
6.889,-908.203,939.941,-543.945,-1000.000,0
6.893,-452.637,-482.910,-562.012,259.277,0
6.897,-1000.000,-1000.000,-480.469,-783.691,0
6.901,-0.488,-686.523,-528.320,643.555,0
6.905,-842.773,818.848,-560.059,-928.223,0
6.909,311.035,129.395,-615.234,-538.086,0
6.913,-1000.000,-1000.000,-493.652,-956.543,0
6.916,-775.879,-908.203,-509.766,921.875,0
6.920,859.375,666.992,-583.496,-683.594,0
6.924,922.363,835.938,-620.605,-1000.000,0
6.928,-784.180,-872.070,-613.770,676.758,0
6.932,-1000.000,-1000.000,-491.211,-925.781,0
6.936,679.688,485.352,-582.031,-634.277,0
6.940,-996.094,976.562,-630.371,-1000.000,0
6.944,-680.176,-596.191,-602.051,582.520,0
6.948,-1000.000,-1000.000,-327.637,-784.668,0
6.952,456.543,-220.703,-467.285,92.285,0
6.956,-871.094,923.828,-660.645,-1000.000,0
6.959,-338.867,-365.234,-634.766,133.301,0
6.963,-1000.000,-1000.000,-443.359,-794.434,0
6.967,-215.820,-774.902,-549.805,728.516,0
6.971,-893.555,761.719,-657.227,-850.586,0
6.975,574.707,347.168,-624.512,-796.387,0
6.979,-1000.000,-1000.000,-479.492,925.781,0
6.983,-863.281,-932.617,-535.156,964.844,0
6.987,804.688,668.457,-617.188,-702.148,0
6.991,993.164,896.484,-579.590,-1000.000,0
6.995,-704.590,-782.715,-540.527,634.277,0
6.999,-1000.000,-1000.000,-467.285,-861.328,0
7.002,684.082,388.672,-591.309,-478.027,0
7.006,997.070,969.238,-621.582,-1000.000,0
7.010,-665.527,-583.984,-616.699,478.027,0
7.014,-1000.000,-1000.000,-466.797,-772.461,0
7.018,345.215,-435.547,-570.312,337.891,0
7.022,-843.750,894.043,-600.098,-1000.000,0
7.026,-222.656,-234.375,-526.855,-98.145,0
7.030,-1000.000,-1000.000,-462.402,-836.914,0
7.034,-417.969,-852.539,-566.895,815.430,0
7.038,-967.773,692.871,-563.477,-770.508,0
7.041,715.820,567.871,-586.914,-899.902,0
7.045,-929.199,-1000.000,-541.992,851.074,0
7.049,-971.191,-973.633,-557.617,985.352,0
7.053,711.426,648.438,-558.594,-711.426,0
7.057,-989.258,957.031,-554.199,-1000.000,0
7.061,-710.449,-677.734,-634.766,617.188,0
7.065,-1000.000,-1000.000,-467.773,-825.195,0
7.069,668.457,245.605,-479.492,-344.727,0
7.073,-954.102,948.242,-610.352,-1000.000,0
7.077,-563.965,-570.312,-636.230,372.559,0
7.081,-1000.000,-1000.000,-404.297,-775.391,0
7.084,225.586,-582.031,-461.426,546.387,0
7.088,-822.754,856.445,-613.281,-980.957,0
7.092,-7.324,-106.445,-660.645,-328.613,0
7.096,-1000.000,-1000.000,-437.500,-896.973,0
7.100,-628.418,-884.766,-512.207,899.414,0
7.104,946.289,666.016,-649.414,-687.500,0
7.108,827.637,734.375,-640.625,-973.633,0
7.112,-857.422,-975.586,-521.973,786.133,0
7.116,-1000.000,-1000.000,-428.711,-998.535,0
7.120,673.340,577.148,-597.656,-717.773,0
7.124,-989.258,982.910,-641.602,-1000.000,0
7.127,-695.312,-612.793,-571.289,600.586,0
7.131,-1000.000,-1000.000,-376.465,-803.223,0
7.135,564.941,23.438,-557.129,-164.062,0
7.139,-908.203,935.547,-661.133,-1000.000,0
7.143,-452.637,-493.652,-557.129,261.230,0
7.147,-1000.000,-1000.000,-432.129,-785.645,0
7.151,2.441,-681.152,-581.543,644.531,0
7.155,-844.238,817.871,-630.371,-927.734,0
7.159,266.113,98.145,-632.324,-561.035,0
7.163,-1000.000,-1000.000,-468.262,-966.309,0
7.166,-738.770,-904.297,-543.457,925.293,0
7.170,883.301,666.992,-624.023,-684.082,0
7.174,916.504,825.684,-601.562,-1000.000,0
7.178,-782.227,-882.812,-598.145,670.410,0
7.182,-1000.000,-1000.000,-515.137,-925.293,0
7.186,679.688,490.234,-572.754,-635.254,0
7.190,-996.582,977.539,-618.164,-1000.000,0
7.194,-680.176,-597.656,-628.906,584.961,0
7.198,-1000.000,-1000.000,-424.316,-787.109,0
7.202,456.543,-197.266,-531.738,61.523,0
7.206,-870.605,928.223,-633.789,-1000.000,0
7.209,-338.867,-373.535,-633.789,137.695,0
7.213,-1000.000,-1000.000,-463.867,-796.387,0
7.217,-215.820,-768.555,-510.742,729.492,0
7.221,-893.555,767.578,-614.258,-853.027,0
7.225,570.312,333.984,-626.953,-782.227,0
7.229,-1000.000,-1000.000,-459.961,937.012,0
7.233,-852.051,-931.152,-448.730,961.426,0
7.237,815.918,668.457,-519.043,-700.684,0
7.241,990.723,891.113,-621.582,-1000.000,0
7.245,-704.102,-789.551,-620.117,636.719,0
7.249,-1000.000,-1000.000,-355.957,-866.699,0
7.252,684.082,394.043,-537.109,-491.211,0
7.256,997.070,969.727,-683.105,-1000.000,0
7.260,-665.527,-584.473,-604.980,479.492,0
7.264,-1000.000,-1000.000,-356.445,-773.438,0
7.268,345.215,-424.316,-517.578,326.660,0
7.272,-843.750,893.066,-637.695,-1000.000,0
7.276,-223.145,-248.535,-607.422,-96.191,0
7.280,-1000.000,-1000.000,-345.703,-837.402,0
7.284,-418.457,-851.074,-483.887,816.895,0
7.288,-965.332,690.918,-669.922,-776.367,0
7.291,699.707,540.527,-597.656,-871.582,0
7.295,-950.684,-1000.000,-477.051,876.953,0
7.299,-941.895,-967.773,-560.547,979.004,0
7.303,743.164,651.855,-639.160,-708.984,0
7.307,-994.141,949.219,-583.008,-1000.000,0
7.311,-709.961,-688.965,-620.605,622.070,0
7.315,-1000.000,-1000.000,-503.906,-834.961,0
7.319,668.457,251.953,-555.664,-374.512,0
7.323,-954.590,949.707,-560.547,-1000.000,0
7.327,-563.965,-570.801,-585.938,374.023,0
7.331,-1000.000,-1000.000,-464.355,-776.367,0
7.334,225.586,-577.637,-553.711,546.387,0
7.338,-823.242,856.934,-617.676,-980.957,0
7.342,-7.324,-119.629,-628.906,-323.730,0
7.346,-1000.000,-1000.000,-480.469,-895.508,0
7.350,-629.395,-883.301,-511.719,899.414,0
7.354,949.707,666.016,-582.031,-689.941,0
7.358,812.012,724.121,-602.539,-962.402,0
7.362,-872.070,-983.398,-556.152,798.828,0
7.366,-1000.000,-1000.000,-505.371,999.023,0
7.370,671.875,584.961,-531.738,-716.797,0
7.374,-987.305,979.492,-619.141,-1000.000,0
7.377,-699.707,-620.605,-643.066,605.469,0
7.381,-1000.000,-1000.000,-394.531,-810.059,0
7.385,584.961,44.922,-519.043,-210.938,0
7.389,-910.645,938.965,-653.809,-1000.000,0
7.393,-452.637,-499.023,-631.348,267.090,0
7.397,-1000.000,-1000.000,-419.434,-788.574,0
7.401,2.441,-674.805,-529.785,642.578,0
7.405,-844.238,819.336,-642.578,-930.176,0
7.409,266.602,72.754,-632.324,-562.012,0
7.413,-1000.000,-1000.000,-361.328,-967.285,0
7.416,-739.258,-901.855,-356.934,926.758,0
7.420,884.277,666.992,-627.930,-687.500,0
7.424,912.598,814.941,-638.184,-1000.000,0
7.428,-786.621,-894.531,-550.781,684.570,0
7.432,-1000.000,-1000.000,-541.504,-927.246,0
7.436,679.199,497.070,-615.234,-634.277,0
7.440,-995.605,982.910,-611.328,-1000.000,0
7.444,-681.641,-605.469,-607.910,594.238,0
7.448,-1000.000,-1000.000,-426.758,-792.480,0
7.452,465.820,-81.055,-546.387,-79.102,0
7.456,-871.582,963.379,-604.980,-1000.000,0
7.459,-338.867,-398.438,-528.320,159.668,0
7.463,-1000.000,-1000.000,-398.926,-807.129,0
7.467,-213.379,-767.578,-533.691,733.887,0
7.471,-892.578,767.090,-605.469,-858.398,0
7.475,516.113,303.223,-551.758,-750.488,0
7.479,-1000.000,-1000.000,-472.168,961.426,0
7.483,-842.285,-926.758,-553.223,954.590,0
7.487,811.523,667.480,-620.605,-697.266,0
7.491,992.188,885.742,-620.605,-1000.000,0
7.495,-704.102,-799.316,-632.812,643.066,0
7.499,-1000.000,-1000.000,-508.301,-881.836,0
7.502,684.082,406.738,-537.109,-525.391,0
7.506,997.559,970.215,-610.840,-1000.000,0
7.510,-666.016,-585.938,-626.465,485.352,0
7.514,-1000.000,-1000.000,-420.898,-777.344,0
7.518,349.121,-401.367,-476.562,252.441,0
7.522,-843.750,899.414,-608.398,-1000.000,0
7.526,-223.145,-257.324,-642.578,-84.473,0
7.530,-1000.000,-1000.000,-431.152,-843.262,0
7.534,-418.457,-845.703,-471.191,819.336,0
7.538,-965.332,697.266,-610.352,-781.250,0
7.541,699.219,521.484,-647.949,-849.609,0
7.545,-952.148,-1000.000,-492.676,897.461,0
7.549,-938.477,-962.402,-381.836,974.121,0
7.553,747.070,656.250,-552.246,-706.543,0
7.557,-995.117,943.359,-655.273,-1000.000,0
7.561,-709.473,-698.242,-578.613,627.441,0
7.565,-1000.000,-1000.000,-241.699,-847.656,0
7.569,677.734,260.742,-509.766,-411.621,0
7.573,-964.844,951.172,-685.547,-1000.000,0
7.577,-565.430,-571.777,-601.074,379.883,0
7.581,-1000.000,-1000.000,-468.750,-777.344,0
7.584,300.781,-562.500,-562.988,478.027,0
7.588,-841.309,875.977,-639.160,-1000.000,0
7.592,-3.418,-146.484,-608.887,-300.293,0
7.596,-1000.000,-1000.000,-443.848,-881.348,0
7.600,-252.441,-504.883,-510.742,524.414,0
7.604,-868.652,847.168,-599.121,-874.023,0
7.608,734.863,631.836,-554.199,-877.441,0
7.612,-847.656,-968.262,-531.250,784.180,0
7.616,-1000.000,-1000.000,-581.543,-995.117,0
7.620,670.410,595.215,-615.234,-714.844,0
7.624,-982.910,978.027,-551.270,-1000.000,0
7.627,-710.938,-625.488,-592.285,614.258,0
7.631,-1000.000,-1000.000,-464.844,-821.777,0
7.635,638.184,69.336,-544.922,-294.434,0
7.639,-916.992,941.406,-594.727,-1000.000,0
7.643,-452.148,-506.836,-599.609,276.855,0
7.647,-1000.000,-1000.000,-441.895,-791.504,0
7.651,5.859,-663.086,-514.160,630.371,0
7.655,-845.703,824.707,-539.062,-939.941,0
7.659,214.355,49.316,-600.098,-534.180,0
7.663,-1000.000,-1000.000,-487.305,-958.008,0
7.666,-731.934,-899.414,-530.273,924.805,0
7.670,883.789,666.992,-625.000,-691.406,0
7.674,900.391,807.129,-616.211,-1000.000,0
7.678,-801.270,-905.762,-606.934,712.891,0
7.682,-1000.000,-1000.000,-490.234,-932.129,0
7.686,683.105,513.672,-540.527,-632.812,0
7.690,999.512,978.027,-641.113,-1000.000,0
7.694,-683.594,-600.586,-620.605,594.238,0
7.698,-1000.000,-1000.000,-354.004,-796.875,0
7.702,518.066,-158.691,-498.535,-53.711,0
7.706,-889.160,930.664,-663.086,-1000.000,0
7.709,-331.055,-395.020,-638.672,153.320,0
7.713,-1000.000,-1000.000,-384.766,-801.758,0
7.717,-209.961,-753.418,-523.926,720.215,0
7.721,-890.625,773.926,-671.875,-871.094,0
7.725,434.570,267.578,-627.441,-741.699,0
7.729,-1000.000,-1000.000,-483.887,964.844,0
7.733,-830.078,-922.852,-520.020,953.125,0
7.737,810.547,667.480,-606.934,-696.777,0
7.741,975.586,875.977,-590.332,-1000.000,0
7.745,-728.027,-813.477,-593.750,642.578,0
7.749,-1000.000,-1000.000,-506.348,-880.859,0
7.752,683.105,420.410,-584.961,-527.832,0
7.756,998.047,971.680,-614.746,-1000.000,0
7.760,-667.969,-587.891,-507.812,504.883,0
7.764,-1000.000,-1000.000,-308.105,-781.738,0
7.768,359.375,-370.117,-554.688,176.270,0
7.772,-844.238,906.738,-640.137,-1000.000,0
7.776,-223.633,-270.996,-620.605,-73.242,0
7.780,-1000.000,-1000.000,-498.047,-844.238,0
7.784,-419.922,-830.078,-556.641,803.711,0
7.788,-957.520,712.891,-594.238,-802.734,0
7.791,649.414,484.375,-590.332,-835.938,0
7.795,-989.746,-1000.000,-500.488,905.273,0
7.799,-927.734,-949.219,-548.340,971.680,0
7.803,743.652,667.480,-550.293,-706.055,0
7.807,-994.141,936.523,-574.707,-1000.000,0
7.811,-709.473,-713.379,-659.180,627.441,0
7.815,-1000.000,-1000.000,-473.633,-847.168,0
7.819,667.969,301.758,-544.922,-412.598,0
7.823,-953.613,963.867,-634.277,-1000.000,0
7.827,-565.430,-582.520,-620.117,397.949,0
7.831,-1000.000,-1000.000,-385.742,-777.832,0
7.834,235.352,-439.941,-452.148,295.410,0
7.838,-822.754,904.297,-604.980,-1000.000,0
7.842,-7.812,-165.039,-664.551,-282.227,0
7.846,-1000.000,-1000.000,-442.871,-912.109,0
7.850,-631.836,-882.812,-488.770,896.973,0
7.854,961.426,669.922,-649.414,-712.891,0
7.858,756.348,681.641,-644.043,-924.316,0
7.862,-923.340,-1000.000,-525.879,836.914,0
7.866,-1000.000,-1000.000,-481.934,990.234,0
7.870,666.504,611.816,-614.746,-713.867,0
7.874,-981.934,975.586,-635.742,-1000.000,0
7.877,-713.867,-633.301,-583.008,614.258,0
7.881,-1000.000,-1000.000,-387.695,-821.777,0
7.885,652.344,106.445,-529.785,-294.922,0
7.889,-916.016,943.848,-655.273,-1000.000,0
7.893,-456.543,-520.508,-544.922,275.879,0
7.897,-1000.000,-1000.000,-283.203,-783.203,0
7.901,50.781,-652.344,-531.738,582.520,0
7.905,-836.426,830.566,-661.621,-976.562,0
7.909,208.984,29.297,-564.453,-523.926,0
7.913,-1000.000,-1000.000,-455.078,-961.914,0
7.916,-735.840,-897.949,-564.453,927.246,0
7.920,894.531,668.457,-622.559,-698.242,0
7.924,854.492,792.969,-591.309,-985.840,0
7.928,-850.586,-923.340,-565.918,742.188,0
7.932,-1000.000,-1000.000,-524.414,-937.012,0
7.936,673.828,529.785,-577.148,-631.836,0
7.940,-988.770,979.492,-536.621,-1000.000,0
7.944,-698.242,-603.516,-605.957,596.191,0
7.948,-1000.000,-1000.000,-466.797,-797.363,0
7.952,549.316,-122.070,-513.672,-80.078,0
7.956,-877.930,938.965,-560.059,-1000.000,0
7.959,-340.332,-405.762,-624.023,170.410,0
7.963,-1000.000,-1000.000,-486.816,-795.410,0
7.967,-209.961,-738.770,-524.414,682.129,0
7.971,-891.113,787.109,-624.023,-904.785,0
7.975,434.570,249.512,-627.441,-733.398,0
7.979,-1000.000,-1000.000,-453.125,967.773,0
7.983,-827.148,-915.527,-459.473,947.266,0
7.987,819.336,667.969,-603.516,-695.312,0
7.991,839.355,761.719,-641.602,-937.500,0
7.995,-810.547,-867.188,-578.613,676.758,0
7.999,-1000.000,-1000.000,-374.512,-896.973,0
8.002,671.875,428.711,-545.898,-519.043,0
8.006,-993.164,975.586,-673.828,-1000.000,0
8.010,-682.617,-589.355,-599.121,504.883,0
8.014,-1000.000,-1000.000,-284.668,-782.715,0
8.018,441.406,-345.703,-491.211,142.578,0
8.022,-844.238,907.715,-644.531,-1000.000,0
8.026,-230.469,-290.039,-605.469,-68.848,0
8.030,-1000.000,-1000.000,-477.539,-843.750,0
8.034,-366.211,-824.219,-567.871,791.992,0
8.038,-938.477,717.285,-645.508,-815.918,0
8.041,641.602,461.426,-623.535,-833.008,0
8.045,-985.840,-1000.000,-365.723,904.297,0
8.049,-928.711,-946.777,-429.199,971.680,0
8.053,743.652,669.922,-643.066,-705.566,0
8.057,-994.141,921.875,-597.168,-1000.000,0
8.061,-709.473,-738.281,-616.211,626.953,0
8.065,-1000.000,-1000.000,-511.230,-845.215,0
8.069,666.016,335.449,-563.965,-416.992,0
8.073,-947.754,965.820,-570.801,-1000.000,0
8.077,-576.660,-580.566,-512.207,415.527,0
8.081,-1000.000,-1000.000,-404.297,-777.344,0
8.084,305.664,-523.438,-570.312,355.957,0
8.088,-820.312,875.488,-608.887,-1000.000,0
8.092,-13.184,-162.109,-632.812,-294.922,0
8.096,-1000.000,-1000.000,-490.723,-885.254,0
8.100,-599.609,-863.281,-537.109,852.051,0
8.104,978.516,683.105,-636.719,-762.207,0
8.108,463.379,375.977,-619.141,-627.930,0
8.112,-1000.000,-1000.000,-533.203,960.449,0
8.116,-953.613,-957.520,-506.836,937.988,0
8.120,643.066,595.703,-495.117,-689.941,0
8.124,-974.121,979.980,-574.219,-1000.000,0
8.127,-713.867,-642.578,-652.832,613.281,0
8.131,-1000.000,-1000.000,-436.523,-818.359,0
8.135,650.879,141.602,-558.105,-302.246,0
8.139,-908.203,944.336,-646.484,-1000.000,0
8.143,-468.750,-536.133,-621.094,318.848,0
8.147,-1000.000,-1000.000,-433.594,-781.738,0
8.151,168.945,-635.254,-547.852,561.035,0
8.155,-812.500,840.820,-658.203,-989.746,0
8.159,194.336,7.324,-639.160,-519.531,0
8.163,-1000.000,-1000.000,-392.090,-963.379,0
8.166,-730.957,-895.996,-477.539,927.734,0
8.170,902.344,668.945,-624.023,-698.242,0
8.174,845.215,781.738,-638.672,-985.840,0
8.178,-858.398,-933.594,-449.707,742.188,0
8.182,-1000.000,-1000.000,-288.086,-937.012,0
8.186,673.828,533.203,-593.262,-631.836,0
8.190,-988.770,980.957,-647.949,-1000.000,0
8.194,-698.242,-605.957,-607.910,595.703,0
8.198,-1000.000,-1000.000,-442.871,-796.387,0
8.202,548.340,-81.055,-545.898,-82.031,0
8.206,-871.582,937.988,-605.957,-1000.000,0
8.209,-349.609,-432.617,-581.543,183.594,0
8.213,-1000.000,-1000.000,-429.688,-789.551,0
8.217,-98.145,-732.422,-557.617,654.785,0
8.221,-859.863,789.551,-623.535,-928.223,0
8.225,418.457,226.074,-527.832,-727.539,0
8.229,-1000.000,-1000.000,-420.410,960.938,0
8.233,-836.426,-918.945,-550.781,953.613,0
8.237,823.730,670.410,-612.305,-696.777,0
8.241,930.664,850.586,-603.516,-1000.000,0
8.245,-787.109,-847.168,-620.605,641.602,0
8.249,-1000.000,-1000.000,-517.090,-878.418,0
8.252,679.688,447.754,-557.617,-534.668,0
8.256,-996.094,974.121,-594.238,-1000.000,0
8.260,-682.617,-591.309,-617.188,540.527,0
8.264,-1000.000,-1000.000,-402.832,-787.109,0
8.268,441.406,-312.012,-461.426,142.578,0
8.272,-843.750,914.062,-609.375,-1000.000,0
8.276,-230.957,-307.617,-656.738,-71.777,0
8.280,-1000.000,-1000.000,-452.637,-833.984,0
8.284,-355.469,-813.477,-530.762,751.953,0
8.288,-934.570,727.539,-619.629,-859.863,0
8.291,639.648,436.035,-638.672,-824.219,0
8.295,-984.863,-1000.000,-483.887,902.832,0
8.299,-929.199,-943.848,-400.391,971.680,0
8.303,743.652,670.898,-556.152,-706.055,0
8.307,-994.141,911.621,-631.348,-1000.000,0
8.311,-708.496,-753.906,-574.219,625.977,0
8.315,-1000.000,-1000.000,-303.223,-842.285,0
8.319,676.270,348.145,-538.086,-424.316,0
8.323,-979.492,966.797,-669.922,-1000.000,0
8.327,-627.441,-581.055,-606.445,453.613,0
8.331,-1000.000,-1000.000,-424.805,-778.809,0
8.334,312.012,-498.047,-552.734,353.516,0
8.338,-820.801,880.371,-648.438,-1000.000,0
8.342,-14.648,-185.059,-605.957,-268.555,0
8.346,-1000.000,-1000.000,-429.688,-887.695,0
8.350,-589.844,-870.117,-523.438,739.746,0
8.354,979.980,678.223,-626.465,-813.965,0
8.358,748.535,634.277,-536.133,-896.973,0
8.362,-919.922,-1000.000,-446.289,827.148,0
8.366,-1000.000,-999.023,-564.453,992.188,0
8.370,666.504,626.465,-626.465,-713.379,0
8.374,-981.934,967.773,-605.957,-1000.000,0
8.377,-712.891,-654.297,-631.836,612.305,0
8.381,-1000.000,-1000.000,-445.801,-815.918,0
8.385,658.691,182.129,-546.875,-307.617,0
8.389,-927.734,946.289,-626.465,-1000.000,0
8.393,-514.160,-552.246,-602.051,347.656,0
8.397,-1000.000,-1000.000,-418.945,-780.762,0
8.401,203.125,-617.676,-524.902,557.129,0
8.405,-806.641,844.238,-534.668,-987.305,0
8.409,190.918,-36.621,-574.707,-482.422,0
8.413,-1000.000,-1000.000,-479.980,-950.684,0
8.416,-725.098,-892.090,-521.973,921.875,0
8.420,907.227,667.480,-629.395,-694.824,0
8.424,844.238,774.902,-631.348,-989.258,0
8.428,-857.910,-943.848,-578.125,749.023,0
8.432,-1000.000,-1000.000,-515.625,-958.496,0
8.436,673.340,549.805,-590.820,-665.039,0
8.440,-989.258,981.445,-626.953,-1000.000,0
8.444,-696.777,-608.398,-605.469,594.238,0
8.448,-1000.000,-1000.000,-336.914,-793.457,0
8.452,556.641,-41.016,-510.254,-89.844,0
8.456,-887.695,937.012,-651.367,-1000.000,0
8.459,-406.250,-458.008,-619.141,229.980,0
8.463,-1000.000,-1000.000,-348.633,-788.574,0
8.467,-8.789,-708.008,-492.188,651.855,0
8.471,-837.402,806.152,-670.898,-925.781,0
8.475,408.691,180.664,-623.535,-727.539,0
8.479,-1000.000,-1000.000,-462.891,960.938,0
8.483,-789.062,-914.062,-533.203,953.613,0
8.487,869.141,668.945,-625.488,-696.777,0
8.491,919.434,845.703,-602.539,-1000.000,0
8.495,-783.691,-854.492,-496.094,644.531,0
8.499,-1000.000,-1000.000,-396.484,-884.766,0
8.502,679.688,453.613,-594.727,-561.523,0
8.506,-996.094,976.562,-628.418,-1000.000,0
8.510,-682.129,-593.750,-598.145,579.102,0
8.514,-1000.000,-1000.000,-400.879,-782.715,0
8.518,445.312,-253.906,-544.922,127.441,0
8.522,-847.168,926.758,-619.141,-1000.000,0
8.526,-266.602,-335.938,-619.141,77.148,0
8.530,-1000.000,-1000.000,-477.539,-803.223,0
8.534,-237.305,-793.945,-537.109,733.887,0
8.538,-895.508,740.234,-579.102,-849.121,0
8.541,621.582,400.879,-566.406,-826.660,0
8.545,-977.539,-1000.000,-492.676,902.344,0
8.549,-926.270,-940.430,-541.992,971.191,0
8.553,749.512,669.434,-543.457,-705.566,0
8.557,-995.605,909.180,-572.266,-1000.000,0
8.561,-708.008,-764.160,-635.742,628.906,0
8.565,-1000.000,-1000.000,-484.863,-848.633,0
8.569,681.152,374.023,-562.500,-448.242,0
8.573,-994.141,968.262,-633.301,-1000.000,0
8.577,-654.785,-583.008,-598.145,478.027,0
8.581,-1000.000,-1000.000,-377.441,-779.785,0
8.584,324.219,-462.402,-520.996,350.098,0
8.588,-814.453,895.508,-630.371,-1000.000,0
8.592,-21.973,-202.148,-631.836,-238.281,0
8.596,-1000.000,-1000.000,-426.758,-875.977,0
8.600,-442.383,-864.746,-421.875,834.473,0
8.604,-956.055,682.617,-587.891,-777.832,0
8.608,725.586,603.516,-653.320,-910.645,0
8.612,-916.504,-1000.000,-489.746,838.867,0
8.616,-981.445,-987.305,-450.684,988.281,0
8.620,702.637,636.719,-625.977,-712.891,0
8.624,-987.793,961.426,-635.742,-1000.000,0
8.627,-711.426,-665.527,-602.051,615.234,0
8.631,-1000.000,-1000.000,-439.941,-820.801,0
8.635,663.574,207.031,-548.340,-332.520,0
8.639,-941.406,942.871,-644.043,-1000.000,0
8.643,-541.504,-566.406,-543.457,372.559,0
8.647,-1000.000,-1000.000,-291.992,-778.809,0
8.651,208.496,-599.609,-542.969,551.758,0
8.655,-805.176,852.539,-660.645,-983.887,0
8.659,191.406,-66.895,-615.234,-411.133,0
8.663,-1000.000,-1000.000,-472.656,-925.293,0
8.666,-656.250,-889.160,-553.223,910.645,0
8.670,959.961,666.992,-632.812,-688.477,0
8.674,828.613,755.859,-601.074,-993.164,0
8.678,-852.539,-958.008,-555.176,754.883,0
8.682,-1000.000,-1000.000,-542.969,-975.586,0
8.686,673.340,561.523,-592.773,-691.895,0
8.690,-989.258,982.422,-525.879,-1000.000,0
8.694,-696.289,-610.352,-589.355,593.750,0
8.698,-1000.000,-1000.000,-434.082,-792.480,0
8.702,560.059,-11.230,-521.484,-93.750,0
8.706,-896.484,937.988,-645.020,-1000.000,0
8.709,-427.246,-473.145,-643.555,252.930,0
8.713,-1000.000,-1000.000,-476.562,-782.715,0
8.717,-7.812,-688.965,-542.969,645.020,0
8.721,-838.379,819.336,-627.930,-927.246,0
8.725,409.668,144.531,-626.953,-602.051,0
8.729,-1000.000,-1000.000,-448.242,-983.887,0
8.733,-761.719,-910.156,-461.914,931.641,0
8.737,894.043,666.992,-597.656,-686.035,0
8.741,913.574,839.844,-636.719,-1000.000,0
8.745,-782.227,-866.211,-604.492,652.832,0
8.749,-1000.000,-1000.000,-499.512,-903.809,0
8.752,679.199,476.562,-579.590,-598.145,0
8.756,-996.582,976.562,-620.605,-1000.000,0
8.760,-681.641,-595.703,-596.191,579.590,0
8.764,-1000.000,-1000.000,-345.215,-781.738,0
8.768,446.777,-230.469,-513.184,115.723,0
8.772,-850.586,925.781,-620.117,-1000.000,0
8.776,-279.785,-354.492,-591.309,130.371,0
8.780,-1000.000,-1000.000,-469.727,-792.480,0
8.784,-221.680,-778.809,-558.594,728.516,0
8.788,-891.602,759.277,-639.160,-852.539,0
8.791,624.023,363.770,-602.539,-784.668,0
8.795,-992.188,-1000.000,-371.582,935.059,0
8.799,-861.328,-934.570,-496.094,961.914,0
8.803,820.312,667.969,-667.480,-701.660,0
8.807,989.746,902.832,-585.449,-1000.000,0
8.811,-704.102,-773.438,-558.105,632.324,0
8.815,-1000.000,-1000.000,-488.770,-856.934,0
8.819,684.570,380.371,-578.613,-468.262,0
8.823,997.070,968.750,-577.148,-1000.000,0
8.827,-666.992,-583.496,-603.027,477.539,0
8.831,-1000.000,-1000.000,-495.117,-771.973,0
8.834,332.031,-442.383,-572.266,337.891,0
8.838,-825.684,895.020,-552.246,-1000.000,0
8.842,-96.191,-224.121,-595.703,-97.656,0
8.846,-1000.000,-1000.000,-512.695,-836.914,0
8.850,-433.594,-855.957,-544.434,815.918,0
8.854,-961.914,689.941,-623.047,-772.461,0
8.858,730.469,581.055,-619.629,-890.137,0
8.862,-926.758,-1000.000,-530.273,859.863,0
8.866,-945.801,-979.004,-530.762,982.910,0
8.870,749.512,643.555,-530.273,-710.449,0
8.874,-995.117,959.961,-572.266,-1000.000,0
8.877,-709.473,-672.852,-655.762,621.094,0
8.881,-1000.000,-1000.000,-468.750,-833.984,0
8.885,668.457,234.863,-562.500,-371.094,0
8.889,-954.590,946.777,-661.621,-1000.000,0
8.893,-564.941,-569.336,-634.277,374.512,0
8.897,-1000.000,-1000.000,-437.988,-776.367,0
8.901,216.797,-585.938,-550.293,535.645,0
8.905,-814.453,858.887,-650.879,-985.840,0
8.909,96.680,-87.402,-638.184,-321.777,0
8.913,-1000.000,-1000.000,-412.109,-895.996,0
8.916,-643.066,-887.207,-498.535,900.879,0
8.920,953.125,666.992,-651.367,-694.824,0
8.924,830.566,741.211,-629.395,-942.383,0
8.928,-852.539,-970.703,-468.750,820.312,0
8.932,-1000.000,-1000.000,-423.340,994.141,0
8.936,673.340,575.195,-614.746,-715.332,0
8.940,-989.258,983.398,-623.047,-1000.000,0
8.944,-695.312,-613.281,-560.059,607.910,0
8.948,-1000.000,-1000.000,-433.105,-813.477,0
8.952,564.941,23.926,-573.242,-234.375,0
8.956,-908.203,937.500,-612.305,-1000.000,0
8.959,-453.125,-490.723,-531.738,269.531,0
8.963,-1000.000,-1000.000,-423.828,-789.551,0
8.967,-1.953,-682.617,-573.242,644.531,0
8.971,-841.797,819.336,-608.887,-928.223,0
8.975,334.473,113.770,-598.633,-538.086,0
8.979,-1000.000,-1000.000,-483.398,-957.031,0
8.983,-749.512,-906.250,-547.363,923.828,0
8.987,888.672,666.992,-621.582,-689.941,0
8.991,915.527,829.102,-609.863,-1000.000,0
8.995,-794.922,-893.066,-611.328,718.262,0
8.999,-1000.000,-1000.000,-546.387,-942.871,0
9.002,687.988,500.977,-554.199,-642.578,0
9.006,714.355,687.988,-590.820,-722.168,0
9.010,-804.199,-722.168,-620.605,710.449,0
9.014,-1000.000,-1000.000,-425.781,-840.332,0
9.018,433.105,-226.074,-479.004,69.336,0
9.022,-862.793,937.012,-609.375,-1000.000,0
9.026,-338.867,-368.164,-645.020,140.137,0
9.030,-1000.000,-1000.000,-461.426,-796.875,0
9.034,-214.844,-769.531,-541.016,730.957,0
9.038,-893.066,766.602,-629.395,-859.375,0
9.041,556.641,335.938,-631.348,-744.629,0
9.045,-1000.000,-1000.000,-458.984,970.703,0
9.049,-843.262,-924.805,-486.816,946.777,0
9.053,812.988,666.016,-611.816,-695.312,0
9.057,891.602,794.434,-615.723,-937.500,0
9.061,-738.281,-819.824,-567.871,676.758,0
9.065,-1000.000,-1000.000,-273.926,-897.949,0
9.069,676.270,384.277,-508.301,-517.090,0
9.073,-1000.000,972.656,-685.059,-1000.000,0
9.077,-665.527,-584.473,-610.840,485.840,0
9.081,-1000.000,-1000.000,-435.059,-777.832,0
9.084,344.727,-420.410,-550.781,246.582,0
9.088,-838.379,902.832,-636.230,-1000.000,0
9.092,-229.004,-248.535,-616.211,-77.148,0
9.096,-1000.000,-1000.000,-456.543,-845.215,0
9.100,-318.848,-750.000,-529.785,720.703,0
9.104,-932.617,728.516,-606.445,-816.895,0
9.108,692.383,530.273,-553.711,-824.219,0
9.112,-937.500,-1000.000,-500.977,897.949,0
9.116,-943.359,-970.215,-572.754,974.609,0
9.120,748.047,650.879,-632.812,-706.055,0
9.123,-995.117,956.543,-522.461,-1000.000,0
9.127,-709.473,-680.176,-563.965,627.930,0
9.131,-1000.000,-1000.000,-496.582,-848.145,0
9.135,668.457,254.883,-567.383,-411.621,0
9.139,-954.590,949.707,-619.629,-1000.000,0
9.143,-563.965,-570.801,-603.027,379.883,0
9.147,-1000.000,-1000.000,-412.598,-776.855,0
9.151,223.633,-577.637,-523.438,468.262,0
9.155,-821.289,855.469,-539.551,-1000.000,0
9.159,15.137,-124.512,-531.250,-310.059,0
9.163,-1000.000,-1000.000,-450.195,-901.855,0
9.166,-631.348,-882.812,-531.738,903.809,0
9.170,947.754,665.527,-636.230,-698.730,0
9.174,828.125,725.098,-631.836,-926.758,0
9.178,-856.445,-983.398,-585.938,837.402,0
9.182,-1000.000,-1000.000,-550.293,990.723,0
9.186,672.852,585.938,-609.863,-713.867,0
9.190,-986.816,979.004,-639.648,-1000.000,0
9.194,-701.172,-620.605,-628.418,614.258,0
9.198,-1000.000,-1000.000,-373.047,-821.777,0
9.202,592.285,44.434,-527.832,-294.434,0
9.206,-911.133,937.500,-679.688,-1000.000,0
9.209,-452.637,-500.488,-625.000,276.367,0
9.213,-1000.000,-1000.000,-428.223,-787.598,0
9.217,-0.977,-674.805,-549.805,607.910,0
9.221,-833.008,830.078,-650.391,-966.797,0
9.225,306.152,71.289,-612.793,-519.043,0
9.229,-1000.000,-1000.000,-387.695,-958.496,0
9.233,-550.781,-706.543,-487.793,730.957,0
9.237,962.891,743.164,-626.465,-773.926,0
9.241,880.371,781.250,-604.492,-952.148,0
9.245,-768.066,-879.395,-478.516,726.562,0
9.248,-1000.000,-1000.000,-395.020,-931.641,0
9.252,678.711,500.488,-612.305,-631.836,0
9.256,-993.164,978.027,-635.254,-1000.000,0
9.260,-686.523,-599.609,-602.539,596.680,0
9.264,-1000.000,-1000.000,-437.988,-798.828,0
9.268,491.211,-171.875,-562.012,-77.637,0
9.272,-873.535,931.641,-617.676,-1000.000,0
9.276,-339.355,-384.277,-610.352,156.250,0
9.280,-1000.000,-1000.000,-472.168,-800.781,0
9.284,-209.961,-762.207,-524.414,708.008,0
9.288,-891.113,768.555,-585.449,-882.812,0
9.291,442.383,290.039,-609.863,-738.770,0
9.295,-1000.000,-1000.000,-497.070,964.355,0
9.299,-830.566,-925.293,-540.039,953.125,0
9.303,808.594,667.480,-548.340,-697.266,0
9.307,984.863,882.812,-562.988,-1000.000,0
9.311,-716.309,-805.176,-628.906,642.090,0
9.315,-1000.000,-1000.000,-490.723,-878.418,0
9.319,683.594,416.504,-502.930,-533.203,0
9.323,997.559,971.191,-604.980,-1000.000,0
9.327,-666.016,-586.914,-626.953,533.691,0
9.331,-1000.000,-1000.000,-371.582,-786.133,0
9.334,349.609,-389.160,-462.891,142.578,0
9.338,-843.750,902.832,-623.047,-1000.000,0
9.342,-223.145,-261.230,-650.391,-67.871,0
9.346,-1000.000,-1000.000,-439.453,-847.168,0
9.350,-419.922,-837.891,-474.609,805.176,0
9.354,-958.496,705.078,-619.141,-801.758,0
9.358,656.738,499.512,-641.113,-835.938,0
9.362,-984.375,-1000.000,-496.582,905.273,0
9.366,-929.199,-953.125,-539.062,971.680,0
9.370,744.141,664.551,-651.855,-705.566,0
9.373,-994.141,939.941,-626.465,-1000.000,0
9.377,-709.473,-704.590,-586.426,627.441,0
9.381,-1000.000,-1000.000,-415.039,-846.680,0
9.385,668.457,276.855,-559.570,-414.551,0
9.389,-954.590,954.102,-667.480,-1000.000,0
9.393,-563.965,-573.730,-551.758,398.438,0
9.397,-1000.000,-1000.000,-316.895,-777.832,0
9.401,225.586,-553.711,-551.758,448.242,0
9.405,-822.754,863.770,-659.180,-1000.000,0
9.409,-7.324,-141.113,-553.711,-307.617,0
9.413,-1000.000,-1000.000,-435.547,-900.391,0
9.416,-631.348,-881.836,-561.035,894.531,0
9.420,958.984,666.992,-623.535,-710.449,0
9.424,766.602,694.824,-594.727,-924.316,0
9.428,-913.574,-1000.000,-534.668,837.402,0
9.432,-1000.000,-1000.000,-522.949,990.723,0
9.436,667.969,604.004,-589.844,-713.379,0
9.440,-983.887,978.027,-605.957,-1000.000,0
9.444,-708.008,-629.395,-638.672,614.258,0
9.448,-1000.000,-1000.000,-450.195,-821.777,0
9.452,624.023,95.215,-543.457,-294.434,0
9.456,-909.668,944.336,-621.582,-1000.000,0
9.459,-461.426,-514.648,-616.211,275.879,0
9.463,-1000.000,-1000.000,-488.770,-782.715,0
9.467,102.051,-648.438,-519.531,603.516,0
9.471,-829.590,832.031,-508.301,-953.613,0
9.475,103.516,-21.484,-588.379,-430.176,0
9.479,-1000.000,-1000.000,-463.379,-925.781,0
9.483,-718.750,-889.160,-459.473,911.133,0
9.487,880.371,662.598,-600.586,-689.941,0
9.491,882.812,801.758,-649.414,-988.770,0
9.495,-823.242,-914.551,-598.145,742.188,0
9.498,-1000.000,-1000.000,-486.816,-937.012,0
9.502,675.781,521.973,-579.102,-631.836,0
9.506,-990.234,979.004,-650.391,-1000.000,0
9.510,-694.336,-602.539,-611.328,596.680,0
9.514,-1000.000,-1000.000,-356.934,-798.828,0
9.518,530.273,-138.184,-510.742,-77.637,0
9.522,-874.512,935.547,-635.742,-1000.000,0
9.526,-342.773,-399.902,-589.355,155.273,0
9.530,-1000.000,-1000.000,-275.391,-797.363,0
9.534,-176.758,-746.094,-470.703,690.430,0
9.538,-881.348,780.762,-679.199,-898.438,0
9.541,429.688,257.324,-624.023,-734.863,0
9.545,-1000.000,-1000.000,-375.977,962.891,0
9.549,-831.543,-922.363,-485.840,953.125,0
9.553,813.477,669.434,-665.039,-696.777,0
9.557,966.309,864.746,-604.492,-1000.000,0
9.561,-740.723,-827.637,-609.375,642.578,0
9.565,-1000.000,-1000.000,-511.719,-879.395,0
9.569,681.641,430.176,-575.195,-531.250,0
9.573,-997.559,972.656,-580.078,-1000.000,0
9.577,-677.734,-589.844,-583.008,523.438,0
9.581,-1000.000,-1000.000,-437.012,-785.156,0
9.584,413.574,-343.750,-546.875,142.578,0
9.588,-845.703,914.551,-587.402,-1000.000,0
9.592,-226.074,-280.762,-607.422,-68.359,0
9.596,-1000.000,-1000.000,-491.699,-846.191,0
9.600,-411.621,-825.195,-541.504,801.270,0
9.604,-954.102,718.262,-546.387,-806.152,0
9.608,648.438,471.680,-590.332,-834.961,0
9.612,-989.258,-1000.000,-499.023,904.785,0
9.616,-927.734,-948.242,-520.996,971.680,0
9.620,743.164,669.434,-533.691,-706.055,0
9.623,-994.141,926.270,-569.336,-1000.000,0
9.627,-709.473,-731.445,-654.785,627.441,0
9.631,-1000.000,-1000.000,-461.914,-846.680,0
9.635,666.016,326.660,-555.664,-414.551,0
9.639,-948.242,962.891,-646.484,-1000.000,0
9.643,-576.172,-579.102,-624.512,401.855,0
9.647,-1000.000,-1000.000,-401.367,-776.367,0
9.651,302.246,-522.949,-528.809,373.535,0
9.655,-820.312,876.465,-646.484,-1000.000,0
9.659,-13.672,-159.668,-623.535,-294.922,0
9.663,-1000.000,-1000.000,-408.203,-906.250,0
9.666,-601.074,-875.977,-500.000,896.484,0
9.670,975.098,673.828,-639.648,-710.938,0
9.674,750.977,666.504,-631.348,-924.316,0
9.678,-920.898,-1000.000,-453.613,837.402,0
9.682,-1000.000,-1000.000,-459.961,990.723,0
9.686,666.992,619.141,-636.719,-713.379,0
9.690,-981.934,971.680,-607.422,-1000.000,0
9.694,-713.867,-642.578,-594.238,613.770,0
9.698,-1000.000,-1000.000,-452.148,-820.312,0
9.702,653.320,139.160,-562.012,-297.363,0
9.706,-917.969,943.359,-622.559,-1000.000,0
9.709,-466.797,-536.133,-522.949,292.969,0
9.713,-1000.000,-1000.000,-340.820,-788.086,0
9.717,79.102,-637.207,-558.594,608.398,0
9.721,-831.055,839.355,-616.699,-955.566,0
9.725,205.566,7.812,-602.051,-529.785,0
9.729,-1000.000,-1000.000,-489.258,-959.961,0
9.733,-736.816,-896.484,-549.316,927.246,0
9.737,896.484,668.945,-616.211,-698.242,0
9.741,847.168,783.203,-609.375,-985.840,0
9.745,-858.887,-933.594,-597.168,742.188,0
9.748,-1000.000,-1000.000,-554.199,-937.012,0
9.752,673.340,537.598,-573.730,-631.836,0
9.756,-989.258,980.957,-581.055,-1000.000,0
9.760,-698.242,-606.445,-628.906,596.680,0
9.764,-1000.000,-1000.000,-448.730,-798.828,0
9.768,548.340,-72.266,-472.656,-77.637,0
9.772,-871.582,942.383,-589.844,-1000.000,0
9.776,-349.121,-430.664,-643.555,155.273,0
9.780,-1000.000,-1000.000,-476.074,-798.340,0
9.784,-101.562,-722.168,-550.293,696.289,0
9.788,-860.840,800.293,-625.000,-893.555,0
9.791,418.945,224.609,-638.672,-736.328,0
9.795,-1000.000,-1000.000,-456.055,963.379,0
9.799,-836.426,-918.945,-500.488,953.613,0
9.803,823.730,670.410,-602.051,-697.266,0
9.807,930.664,852.051,-608.398,-1000.000,0
9.811,-787.109,-845.703,-570.312,642.578,0
9.815,-1000.000,-1000.000,-306.152,-880.371,0
9.819,679.688,446.777,-509.277,-528.320,0
9.823,-996.094,975.098,-663.574,-1000.000,0
9.827,-682.617,-592.285,-609.863,508.789,0
9.831,-1000.000,-1000.000,-439.941,-782.715,0
9.834,440.918,-294.434,-560.547,159.180,0
9.838,-840.820,921.387,-641.602,-1000.000,0
9.842,-234.375,-310.059,-618.652,-70.312,0
9.846,-1000.000,-1000.000,-478.516,-846.680,0
9.850,-299.805,-808.594,-549.805,808.105,0
9.854,-915.527,734.863,-608.398,-798.340,0
9.858,631.836,442.871,-575.684,-836.914,0
9.862,-985.352,-1000.000,-484.863,905.762,0
9.866,-912.109,-944.824,-545.898,971.680,0
9.870,763.184,670.410,-608.398,-706.055,0
9.873,-998.047,915.039,-519.043,-1000.000,0
9.877,-708.008,-751.465,-577.637,627.441,0
9.881,-1000.000,-1000.000,-532.227,-847.168,0
9.885,674.316,354.004,-565.430,-412.598,0
9.889,-973.145,967.285,-623.535,-1000.000,0
9.893,-621.582,-581.543,-625.000,390.137,0
9.897,-1000.000,-1000.000,-424.316,-776.367,0
9.901,324.707,-491.699,-520.508,403.809,0
9.905,-818.848,885.254,-535.645,-1000.000,0
9.909,-17.090,-184.082,-600.098,-299.805,0
9.913,-1000.000,-1000.000,-507.324,-903.809,0
9.916,-549.316,-869.629,-541.016,895.508,0
9.920,997.559,679.688,-632.324,-711.426,0
9.924,741.699,644.043,-618.652,-924.316,0
9.928,-916.992,-1000.000,-551.270,837.402,0
9.932,-1000.000,-999.512,-545.410,990.234,0
9.936,666.992,628.906,-604.004,-713.867,0
9.940,-981.445,967.773,-619.629,-1000.000,0
9.944,-713.379,-654.297,-623.047,613.281,0
9.948,-1000.000,-1000.000,-402.344,-818.359,0
9.952,656.250,189.453,-528.809,-301.270,0
9.956,-920.898,947.754,-665.039,-1000.000,0
9.959,-501.953,-552.734,-627.441,312.988,0
9.963,-1000.000,-1000.000,-407.227,-781.250,0
9.967,207.520,-612.793,-541.992,561.035,0
9.971,-805.176,850.098,-653.320,-989.746,0
9.975,190.430,-32.715,-633.789,-519.531,0
9.979,-1000.000,-1000.000,-455.078,-963.379,0
9.983,-713.379,-892.578,-500.977,927.734,0
9.987,916.016,667.969,-597.656,-698.242,0
9.991,841.309,773.438,-591.797,-985.840,0
9.995,-856.934,-945.312,-464.355,742.188,0
9.998,-1000.000,-1000.000,-432.617,-937.012,0
10.002,673.340,551.270,-604.004,-631.836,0
10.006,-989.258,982.422,-598.633,-1000.000,0
10.010,-696.777,-609.375,-607.422,595.703,0
10.014,-1000.000,-1000.000,-454.102,-796.387,0
10.018,555.664,-25.879,-566.406,-82.520,0
10.022,-886.719,941.895,-615.723,-1000.000,0
10.026,-396.484,-459.473,-592.285,187.012,0
10.030,-1000.000,-1000.000,-480.957,-789.062,0
10.034,-46.875,-704.102,-555.176,654.785,0
10.038,-847.656,809.082,-578.125,-928.223,0
10.041,414.062,170.898,-595.215,-727.051,0
10.045,-1000.000,-1000.000,-475.098,960.938,0
10.049,-785.645,-913.086,-536.621,953.613,0
10.053,871.582,668.457,-544.434,-697.266,0
10.057,918.945,843.750,-536.621,-1000.000,0
10.061,-783.691,-859.863,-622.559,641.602,0
10.065,-1000.000,-1000.000,-552.246,-875.977,0
10.069,679.688,468.262,-600.098,-540.527,0
10.073,-996.094,976.074,-639.160,-1000.000,0
10.077,-682.129,-594.727,-625.488,567.383,0
10.081,-1000.000,-1000.000,-396.973,-787.598,0
10.084,444.336,-245.605,-459.473,137.695,0
10.088,-845.703,926.270,-598.145,-1000.000,0
10.092,-265.137,-341.797,-654.297,-26.367,0
10.096,-1000.000,-1000.000,-452.148,-824.707,0
10.100,-222.656,-788.574,-517.578,746.582,0
10.104,-890.137,750.488,-631.836,-856.445,0
10.108,621.582,379.883,-652.832,-824.707,0
10.112,-984.375,-1000.000,-477.051,902.344,0
10.116,-893.066,-936.523,-404.297,971.191,0
10.120,785.645,668.457,-582.520,-706.055,0
10.123,997.070,905.273,-634.766,-1000.000,0
10.127,-706.055,-769.043,-581.055,625.977,0
10.131,-1000.000,-1000.000,-445.801,-841.309,0
10.135,684.082,373.535,-562.988,-426.758,0
10.139,997.070,968.750,-636.230,-1000.000,0
10.143,-668.945,-587.891,-551.270,464.844,0
10.147,-1000.000,-1000.000,-355.469,-778.809,0
10.151,329.102,-459.473,-551.758,351.562,0
10.155,-848.145,791.504,-636.719,-1000.000,0
10.159,-82.520,-250.977,-616.699,-255.371,0
10.163,-1000.000,-1000.000,-464.844,-880.371,0
10.166,-437.988,-867.188,-553.223,836.914,0
10.170,-958.984,688.965,-617.676,-778.320,0
10.174,725.098,586.426,-526.367,-913.574,0
10.178,-911.133,-1000.000,-486.816,835.449,0
10.182,-999.512,-981.934,-562.500,989.258,0
10.186,679.688,640.625,-604.980,-713.379,0
10.190,-983.887,959.473,-516.113,-1000.000,0
10.194,-711.426,-671.387,-600.098,612.793,0
10.198,-1000.000,-1000.000,-521.973,-817.383,0
10.202,673.828,227.539,-559.570,-303.711,0
10.206,-960.938,945.312,-632.812,-1000.000,0
10.209,-562.988,-568.848,-636.230,326.660,0
10.213,-1000.000,-1000.000,-482.910,-781.738,0
10.217,250.488,-587.891,-537.598,560.547,0
10.221,-830.566,857.422,-608.887,-989.258,0
10.225,104.980,-85.938,-638.184,-519.531,0
10.229,-1000.000,-1000.000,-459.473,-963.379,0
10.233,-643.066,-887.207,-464.355,927.734,0
10.237,953.125,666.504,-543.457,-698.242,0
10.241,830.566,745.117,-618.652,-985.840,0
10.245,-852.539,-967.773,-592.773,742.188,0
10.248,-1000.000,-1000.000,-528.320,-937.012,0
10.252,673.340,571.777,-593.750,-631.836,0
10.256,-988.770,982.910,-630.371,-1000.000,0
10.260,-695.312,-612.305,-619.141,595.703,0
10.264,-1000.000,-1000.000,-377.930,-796.387,0
10.268,564.941,16.113,-509.277,-81.543,0
10.272,-908.203,937.500,-621.582,-1000.000,0
10.276,-453.125,-487.793,-590.820,179.199,0
10.280,-1000.000,-1000.000,-358.398,-789.551,0
10.284,-1.953,-683.105,-515.137,655.273,0
10.288,-841.797,818.848,-646.484,-928.711,0
10.291,336.426,114.746,-606.934,-727.051,0
10.295,-1000.000,-1000.000,-368.652,960.938,0
10.299,-750.000,-906.738,-496.094,953.613,0
10.303,888.672,667.480,-661.133,-697.266,0
10.307,915.039,828.125,-588.379,-1000.000,0
10.311,-782.227,-878.906,-591.309,641.113,0
10.315,-1000.000,-1000.000,-563.965,-875.000,0
10.319,684.570,485.840,-581.055,-542.969,0
10.323,997.559,977.539,-578.125,-1000.000,0
10.327,-678.223,-597.656,-626.465,580.078,0
10.331,-1000.000,-1000.000,-462.891,-790.039,0
10.334,490.723,-200.195,-538.574,139.160,0
10.338,-886.719,929.199,-545.410,-1000.000,0
10.342,-331.055,-369.629,-585.449,-38.574,0
10.346,-1000.000,-1000.000,-498.047,-827.148,0
10.350,-216.309,-770.996,-540.527,748.047,0
10.354,-893.555,765.625,-624.023,-857.422,0
10.358,589.355,341.309,-617.676,-824.707,0
10.362,-1000.000,-1000.000,-482.910,902.344,0
10.366,-855.469,-932.129,-519.043,971.191,0
10.370,817.383,668.457,-520.020,-706.055,0
10.373,990.723,894.531,-576.660,-1000.000,0
10.377,-704.102,-786.621,-650.879,625.977,0
10.381,-1000.000,-1000.000,-492.188,-841.309,0
10.385,684.082,396.484,-580.566,-426.270,0
10.389,997.559,969.238,-642.578,-1000.000,0
10.393,-666.016,-584.473,-621.094,463.379,0
10.397,-1000.000,-1000.000,-419.922,-779.785,0
10.401,339.844,-428.711,-539.551,353.516,0
10.405,-836.426,894.531,-636.230,-1000.000,0
10.409,-172.363,-241.211,-639.648,-280.273,0
10.413,-1000.000,-1000.000,-438.965,-887.695,0
10.416,-424.316,-851.074,-493.164,840.332,0
10.420,-967.285,693.359,-620.117,-780.273,0
10.424,731.934,559.082,-629.883,-913.086,0
10.428,-926.758,-1000.000,-443.848,835.449,0
10.432,-945.801,-971.191,-475.098,989.746,0
10.436,749.512,652.344,-632.324,-718.750,0
10.440,-995.117,949.707,-604.004,-1000.000,0
10.444,-714.844,-693.848,-623.047,615.234,0
10.448,-1000.000,-1000.000,-501.465,-920.410,0
10.452,666.504,251.465,-541.992,-342.773,0
10.456,945.801,850.098,-605.469,-990.723,0
10.459,-598.145,-604.492,-537.598,388.672,0
10.463,-1000.000,-1000.000,-337.891,-793.945,0
10.467,214.844,-584.961,-554.199,563.965,0
10.471,-817.383,858.398,-616.211,-989.258,0
10.475,26.367,-124.023,-600.586,-473.145,0
10.479,-1000.000,-1000.000,-479.492,-947.266,0
10.483,-632.812,-882.812,-538.574,920.410,0
10.487,947.754,665.527,-598.633,-693.359,0
10.491,832.031,724.609,-601.074,-992.676,0
10.495,-852.539,-983.887,-587.891,757.324,0
10.498,-1000.000,-1000.000,-580.078,-982.910,0
10.502,672.363,587.402,-593.750,-703.125,0
10.506,-985.840,979.004,-581.055,-1000.000,0
10.510,-704.102,-621.582,-605.469,599.121,0
10.514,-1000.000,-1000.000,-424.805,-800.781,0
10.518,606.445,49.316,-477.539,-149.902,0
10.522,-913.086,939.941,-556.641,-1000.000,0
10.526,-452.637,-499.512,-622.070,259.766,0
10.530,-1000.000,-1000.000,-466.797,-788.086,0
10.534,1.953,-667.969,-549.316,647.461,0
10.538,-843.750,825.195,-636.719,-926.270,0
10.541,275.879,75.195,-644.531,-634.277,0
10.545,-1000.000,-1000.000,-447.754,-998.535,0
10.549,-740.723,-902.344,-499.023,937.500,0
10.553,883.789,666.992,-610.352,-692.871,0
10.557,916.016,817.383,-611.328,-1000.000,0
10.561,-782.227,-893.555,-565.430,656.250,0
10.565,-1000.000,-1000.000,-372.070,979.492,0
10.569,679.199,501.465,-544.922,-664.062,0
10.573,-994.141,978.027,-657.227,-996.582,0
10.577,-684.082,-599.609,-603.027,577.637,0
10.581,-1000.000,-1000.000,-374.512,-785.156,0
10.584,477.051,-171.387,-536.133,49.805,0
10.588,-872.559,932.129,-646.484,-1000.000,0
10.592,-339.355,-384.766,-598.633,139.648,0
10.596,-1000.000,-1000.000,-446.289,-797.363,0
10.600,-214.355,-761.719,-541.504,729.492,0
10.604,-893.066,769.043,-618.652,-851.562,0
10.608,541.992,293.457,-576.660,-790.527,0
10.612,-1000.000,-1000.000,-353.516,930.664,0
10.616,-847.168,-925.781,-499.023,963.379,0
10.620,813.965,667.969,-654.297,-700.684,0
10.623,991.699,881.348,-541.992,-1000.000,0
10.627,-709.473,-810.059,-581.543,647.461,0
10.631,-1000.000,-1000.000,-536.133,-885.742,0
10.635,682.129,408.203,-591.797,-518.555,0
10.639,898.926,871.582,-560.547,-963.379,0
10.643,-701.660,-620.605,-583.496,515.625,0
10.647,-1000.000,-1000.000,-453.125,-791.504,0
10.651,349.609,-399.902,-535.156,313.965,0
10.655,-841.309,904.297,-560.547,-1000.000,0
10.659,-223.145,-261.719,-613.770,-92.773,0
10.663,-1000.000,-1000.000,-505.859,-838.867,0
10.666,-418.457,-838.379,-542.969,816.895,0
10.670,-964.844,704.590,-629.883,-771.973,0
10.674,697.754,512.695,-634.766,-892.578,0
10.678,-953.125,-1000.000,-533.691,857.422,0
10.682,-937.988,-956.543,-528.320,983.887,0
10.686,747.070,662.598,-596.680,-709.961,0
10.690,-995.117,941.406,-623.047,-1000.000,0
10.694,-709.473,-703.125,-611.816,623.535,0
10.698,-1000.000,-1000.000,-390.137,-839.355,0
10.702,668.457,279.297,-525.391,-386.719,0
10.706,-953.613,954.590,-660.156,-1000.000,0
10.709,-564.941,-573.730,-634.766,377.930,0
10.713,-1000.000,-1000.000,-328.613,-775.879,0
10.717,232.910,-555.664,-471.680,481.445,0
10.721,-817.871,868.652,-663.086,-1000.000,0
10.725,-14.160,-146.973,-624.512,-306.152,0
10.729,-1000.000,-1000.000,-467.285,-902.832,0
10.733,-531.250,-782.227,-536.133,803.223,0
10.737,991.211,701.172,-611.328,-731.934,0
10.741,760.254,675.781,-620.605,-912.109,0
10.745,-896.484,-998.535,-419.434,827.637,0
10.748,-1000.000,-1000.000,-305.664,993.652,0
10.752,668.457,601.074,-593.750,-714.355,0
