timestamps,TP9,AF7,AF8,TP10,Marker0
1614035414.402,637.207,231.934,-655.762,-166.504,0
1614035414.406,937.012,901.855,-672.852,-1000.000,Default
1614035414.410,-598.145,-636.230,-520.996,251.465,Default
1614035414.414,-1000.000,-1000.000,-375.488,-754.395,Default
1614035414.418,1.953,-198.242,-625.488,185.547,Default
1614035414.422,-802.246,-861.328,-614.746,-1000.000,Default
1614035414.425,55.176,52.734,-615.723,-276.855,Default
1614035414.429,-1000.000,-1000.000,-480.469,-796.387,Default
1614035414.433,-245.605,-350.586,-507.324,423.828,Default
1614035414.437,-812.988,-864.746,-615.723,-1000.000,Default
1614035414.441,224.609,247.559,-689.941,-284.668,Default
1614035414.445,-1000.000,-1000.000,-449.707,-880.371,Default
1614035414.449,-473.145,-861.328,-391.602,874.023,Default
1614035414.453,-949.219,765.625,-669.434,-714.844,Default
1614035414.457,547.363,541.016,-686.035,-732.910,Default
1614035414.461,-1000.000,-981.445,-503.418,839.355,Default
1614035414.464,-1000.000,-1000.000,-385.254,-834.961,Default
1614035414.468,437.988,64.453,-616.211,41.016,Default
1614035414.472,-940.430,-973.145,-669.434,-1000.000,Default
1614035414.476,-415.039,-409.180,-569.336,56.641,Default
1614035414.480,-1000.000,-1000.000,-214.355,-744.141,Default
1614035414.484,-114.746,-208.984,-464.355,192.871,Default
1614035414.488,-803.223,-846.191,-709.961,-1000.000,Default
1614035414.492,220.215,185.059,-639.160,-277.832,Default
1614035414.496,-1000.000,-1000.000,-451.660,-811.523,Default
1614035414.500,-262.695,-491.699,-499.512,525.879,Default
1614035414.504,-810.547,-909.180,-681.152,-1000.000,Default
1614035414.507,239.258,250.977,-650.879,-443.848,Default
1614035414.511,-1000.000,-1000.000,-327.148,-987.793,Default
1614035414.515,-649.414,-1000.000,-320.312,-946.289,Default
1614035414.519,998.535,525.879,-690.430,-381.836,Default
1614035414.523,639.648,685.059,-653.809,-984.375,Default
1614035414.527,-927.734,-887.207,-392.090,542.969,Default
1614035414.531,-1000.000,-1000.000,-351.074,-776.855,Default
1614035414.535,216.797,-98.633,-674.805,164.551,Default
1614035414.539,-817.383,-887.695,-677.734,-1000.000,Default
1614035414.543,-138.184,-170.898,-585.449,-62.988,Default
1614035414.547,-1000.000,-1000.000,-423.828,-749.023,Default
1614035414.550,-227.051,-217.773,-573.730,200.684,Default
1614035414.554,-824.219,-835.938,-645.020,-1000.000,Default
1614035414.558,239.746,245.117,-654.297,-271.973,Default
1614035414.562,-1000.000,-1000.000,-362.793,-843.262,Default
1614035414.566,-365.723,-630.371,-385.254,686.035,Default
1614035414.570,-842.773,-979.004,-622.070,-969.727,Default
1614035414.574,346.191,354.004,-607.422,-590.332,Default
1614035414.578,-1000.000,-1000.000,-479.004,935.059,Default
1614035414.582,-784.180,-1000.000,-409.668,-872.070,Default
1614035414.586,801.270,287.598,-666.504,-187.012,Default
1614035414.589,885.254,855.469,-692.871,-1000.000,Default
1614035414.593,-641.602,-696.777,-534.180,361.816,Default
1614035414.597,-1000.000,-1000.000,-379.883,-757.812,Default
1614035414.601,43.945,-190.430,-621.094,178.223,Default
1614035414.605,-805.176,-869.141,-654.785,-1000.000,Default
1614035414.609,-0.977,-7.812,-611.816,-217.285,Default
1614035414.613,-1000.000,-1000.000,-383.789,-779.297,Default
1614035414.617,-237.793,-308.594,-400.391,361.816,Default
1614035414.621,-820.312,-855.469,-609.863,-1000.000,Default
1614035414.625,242.188,246.582,-709.961,-276.367,Default
1614035414.629,-1000.000,-1000.000,-358.887,-884.766,Default
1614035414.632,-467.285,-808.105,-323.730,877.441,Default
1614035414.636,-887.207,832.031,-711.914,-720.215,Default
1614035414.640,491.699,499.512,-695.801,-710.449,Default
1614035414.644,-1000.000,-1000.000,-458.008,876.953,Default
1614035414.648,-1000.000,-1000.000,-382.324,-847.168,Default
1614035414.652,476.562,116.211,-669.922,-53.223,Default
1614035414.656,-944.336,995.605,-694.336,-1000.000,Default
1614035414.660,-414.551,-475.586,-464.355,139.160,Default
1614035414.664,-1000.000,-1000.000,-300.293,-745.117,Default
1614035414.668,-106.445,-204.590,-661.621,188.477,Default
1614035414.672,-810.547,-851.074,-676.758,-1000.000,Default
1614035414.675,118.652,134.766,-641.113,-278.320,Default
1614035414.679,-1000.000,-1000.000,-451.660,-808.594,Default
1614035414.683,-248.047,-446.777,-482.422,519.043,Default
1614035414.687,-816.895,-895.020,-658.691,-1000.000,Default
1614035414.691,242.188,250.488,-671.875,-388.672,Default
1614035414.695,-1000.000,-1000.000,-411.133,-940.918,Default
1614035414.699,-597.656,-961.426,-374.023,989.746,Default
1614035414.703,-968.750,610.352,-663.086,-514.648,Default
1614035414.707,628.906,644.043,-581.543,-893.555,Default
1614035414.711,-921.875,-924.316,-453.125,669.922,Default
1614035414.714,-1000.000,-1000.000,-442.871,-803.711,Default
1614035414.718,229.004,-43.457,-652.344,87.891,Default
1614035414.722,-839.355,-899.414,-666.504,-1000.000,Default
1614035414.726,-220.215,-233.887,-572.266,-51.270,Default
1614035414.730,-1000.000,-1000.000,-415.039,-754.883,Default
1614035414.734,-220.215,-214.844,-604.492,202.637,Default
1614035414.738,-825.684,-838.867,-659.668,-1000.000,Default
1614035414.742,236.328,231.445,-655.273,-276.367,Default
1614035414.746,-1000.000,-1000.000,-435.059,-824.219,Default
1614035414.750,-302.734,-585.938,-359.375,615.723,Default
1614035414.754,-821.289,-949.707,-602.539,-1000.000,Default
1614035414.757,335.938,309.082,-704.590,-497.559,Default
1614035414.761,-1000.000,-1000.000,-440.918,989.746,Default
1614035414.765,-794.434,-1000.000,-355.957,-914.062,Default
1614035414.769,825.195,364.258,-670.410,-272.949,Default
1614035414.773,797.363,799.805,-696.289,-1000.000,Default
1614035414.777,-769.531,-769.531,-503.906,368.652,Default
1614035414.781,-1000.000,-1000.000,-357.422,-761.230,Default
1614035414.785,114.258,-172.363,-643.066,175.293,Default
1614035414.789,-810.547,-874.512,-665.039,-1000.000,Default
1614035414.793,-69.824,-57.617,-580.078,-171.387,Default
1614035414.797,-1000.000,-1000.000,-190.918,-766.602,Default
1614035414.800,-231.934,-273.438,-375.977,312.500,Default
1614035414.804,-824.219,-847.656,-702.637,-1000.000,Default
1614035414.808,243.164,247.070,-635.742,-278.809,Default
1614035414.812,-1000.000,-1000.000,-362.305,-862.305,Default
1614035414.816,-466.309,-742.676,-417.969,783.203,Default
1614035414.820,-885.742,912.109,-699.707,-845.215,Default
1614035414.824,448.730,456.055,-684.082,-691.895,Default
1614035414.828,-1000.000,-1000.000,-502.930,874.512,Default
1614035414.832,-911.133,-1000.000,-437.988,-848.145,Default
1614035414.836,610.352,168.457,-667.480,-62.500,Default
1614035414.839,-976.074,966.309,-672.852,-1000.000,Default
1614035414.843,-464.355,-530.273,-517.090,169.434,Default
1614035414.847,-1000.000,-1000.000,-391.113,-743.164,Default
1614035414.851,-3.906,-200.684,-662.109,186.035,Default
1614035414.855,-791.992,-855.957,-599.609,-1000.000,Default
1614035414.859,105.957,88.379,-562.500,-277.344,Default
1614035414.863,-1000.000,-1000.000,-481.934,-804.688,Default
1614035414.867,-250.000,-402.344,-533.203,466.309,Default
1614035414.871,-816.406,-880.371,-655.762,-1000.000,Default
1614035414.875,242.188,249.023,-677.734,-378.418,Default
1614035414.879,-1000.000,-1000.000,-449.219,-945.801,Default
1614035414.882,-561.035,-919.922,-381.836,994.629,Default
1614035414.886,-941.406,675.293,-633.789,-523.926,Default
1614035414.890,577.148,602.539,-661.621,-859.375,Default
1614035414.894,-977.539,-947.754,-515.625,716.797,Default
1614035414.898,-1000.000,-1000.000,-382.324,-808.594,Default
1614035414.902,354.492,1.953,-589.355,59.082,Default
1614035414.906,-846.191,-921.387,-687.012,-1000.000,Default
1614035414.910,-223.633,-298.828,-573.242,10.742,Default
1614035414.914,-1000.000,-1000.000,-343.750,-748.535,Default
1614035414.918,-212.402,-212.402,-558.105,196.777,Default
1614035414.922,-821.289,-841.309,-679.688,-1000.000,Default
1614035414.925,233.398,216.309,-677.246,-276.855,Default
1614035414.929,-1000.000,-1000.000,-345.703,-823.730,Default
1614035414.933,-263.184,-545.898,-357.422,610.840,Default
1614035414.937,-810.059,-931.152,-668.945,-1000.000,Default
1614035414.941,288.574,283.691,-686.523,-489.746,Default
1614035414.945,-1000.000,-1000.000,-298.340,992.676,Default
1614035414.949,-666.016,-1000.000,-203.125,-910.645,Default
1614035414.953,953.125,430.664,-692.383,-300.781,Default
1614035414.957,773.926,754.883,-683.105,-1000.000,Default
1614035414.961,-764.648,-820.312,-507.812,469.238,Default
1614035414.964,-1000.000,-1000.000,-403.809,-772.949,Default
1614035414.968,130.859,-145.508,-652.832,176.758,Default
1614035414.972,-817.871,-875.488,-664.551,-1000.000,Default
1614035414.976,-110.840,-98.145,-556.641,-152.832,Default
1614035414.980,-1000.000,-1000.000,-355.469,-822.754,Default
1614035414.984,-228.027,-246.094,-537.598,223.145,Default
1614035414.988,-824.707,-841.309,-635.742,-1000.000,Default
1614035414.992,241.699,245.605,-540.039,-281.250,Default
1614035414.996,-1000.000,-1000.000,-337.402,-854.980,Default
1614035415.000,-416.504,-703.613,-421.875,753.906,Default
1614035415.004,-864.258,953.125,-698.242,-889.160,Default
1614035415.007,440.430,410.645,-688.477,-633.789,Default
1614035415.011,-1000.000,-1000.000,-505.859,921.875,Default
1614035415.015,-916.016,-1000.000,-448.730,-877.441,Default
1614035415.019,645.996,223.145,-660.645,-144.043,Default
1614035415.023,935.547,921.875,-690.430,-1000.000,Default
1614035415.027,-598.145,-606.445,-517.090,178.223,Default
1614035415.031,-1000.000,-1000.000,-375.488,-749.023,Default
1614035415.035,1.465,-198.242,-600.586,187.012,Default
1614035415.039,-801.758,-860.840,-608.398,-1000.000,Default
1614035415.043,60.059,55.664,-656.738,-276.855,Default
1614035415.047,-1000.000,-1000.000,-469.727,-797.852,Default
1614035415.050,-244.141,-368.652,-523.926,425.293,Default
1614035415.054,-819.824,-871.582,-677.246,-1000.000,Default
1614035415.058,243.164,250.000,-687.500,-302.734,Default
1614035415.062,-1000.000,-1000.000,-410.156,-889.160,Default
1614035415.066,-561.035,-865.234,-363.281,878.418,Default
1614035415.070,-938.477,757.324,-657.227,-678.223,Default
1614035415.074,546.875,562.988,-673.340,-844.727,Default
1614035415.078,-1000.000,-969.727,-475.586,717.773,Default
1614035415.082,-1000.000,-1000.000,-247.559,-811.523,Default
1614035415.086,426.758,56.152,-572.754,38.574,Default
1614035415.089,-908.203,-953.125,-728.516,-1000.000,Default
1614035415.093,-353.027,-372.070,-485.840,56.641,Default
1614035415.097,-1000.000,-1000.000,-310.547,-743.652,Default
1614035415.101,-126.465,-209.473,-651.855,192.383,Default
1614035415.105,-803.711,-845.215,-674.316,-1000.000,Default
1614035415.109,221.191,185.547,-626.953,-277.832,Default
1614035415.113,-1000.000,-1000.000,-469.238,-813.477,Default
1614035415.117,-262.207,-503.418,-503.418,531.738,Default
1614035415.121,-811.035,-914.062,-666.992,-1000.000,Default
1614035415.125,239.258,257.324,-641.602,-475.586,Default
1614035415.129,-1000.000,-1000.000,-405.762,990.234,Default
1614035415.132,-645.996,-1000.000,-400.879,-918.457,Default
1614035415.136,987.793,508.789,-678.223,-344.238,Default
1614035415.140,685.059,708.984,-644.531,-985.840,Default
1614035415.144,-876.465,-863.770,-510.254,542.480,Default
1614035415.148,-1000.000,-1000.000,-404.297,-776.367,Default
1614035415.152,206.543,-110.352,-619.629,166.504,Default
1614035415.156,-812.500,-884.277,-648.926,-1000.000,Default
1614035415.160,-117.676,-154.785,-569.824,-83.496,Default
1614035415.164,-1000.000,-1000.000,-364.746,-752.441,Default
1614035415.168,-228.516,-218.750,-517.090,212.891,Default
1614035415.172,-822.754,-835.449,-600.586,-1000.000,Default
1614035415.175,239.746,244.629,-635.742,-269.531,Default
1614035415.179,-1000.000,-1000.000,-491.211,-854.492,Default
1614035415.183,-366.699,-648.438,-410.156,737.305,Default
1614035415.187,-842.773,-995.117,-608.398,-913.086,Default
1614035415.191,357.910,365.234,-692.383,-601.074,Default
1614035415.195,-1000.000,-1000.000,-480.469,938.477,Default
1614035415.199,-826.172,-1000.000,-408.691,-876.465,Default
1614035415.203,739.258,268.555,-666.504,-175.781,Default
1614035415.207,924.316,872.559,-689.453,-1000.000,Default
1614035415.211,-597.656,-673.828,-528.320,300.293,Default
1614035415.214,-1000.000,-1000.000,-341.309,-757.324,Default
1614035415.218,23.926,-194.824,-590.332,184.570,Default
1614035415.222,-807.129,-867.188,-657.715,-1000.000,Default
1614035415.226,1.465,9.277,-645.020,-275.879,Default
1614035415.230,-1000.000,-1000.000,-300.781,-795.898,Default
1614035415.234,-237.305,-322.266,-382.812,400.879,Default
1614035415.238,-820.312,-858.887,-704.590,-1000.000,Default
1614035415.242,242.676,247.070,-664.062,-280.762,Default
1614035415.246,-1000.000,-1000.000,-417.969,-881.836,Default
1614035415.250,-468.262,-823.730,-414.062,874.512,Default
1614035415.254,-889.648,812.012,-683.594,-710.938,Default
1614035415.257,529.297,518.066,-671.387,-750.000,Default
1614035415.261,-999.512,-991.211,-429.199,833.008,Default
1614035415.265,-1000.000,-1000.000,-343.750,-841.309,Default
1614035415.269,445.801,103.027,-659.180,-35.156,Default
1614035415.273,-941.406,-994.141,-648.438,-1000.000,Default
1614035415.277,-414.551,-457.520,-440.430,82.031,Default
1614035415.281,-1000.000,-1000.000,-392.090,-748.047,Default
1614035415.285,-107.910,-206.055,-680.664,192.871,Default
1614035415.289,-809.570,-849.609,-646.484,-1000.000,Default
1614035415.293,137.207,152.344,-624.512,-277.832,Default
1614035415.297,-1000.000,-1000.000,-481.934,-810.547,Default
1614035415.300,-250.488,-465.820,-506.348,524.902,Default
1614035415.304,-816.406,-901.855,-656.738,-1000.000,Default
1614035415.308,241.699,252.441,-663.574,-426.758,Default
1614035415.312,-1000.000,-1000.000,-372.070,-955.078,Default
1614035415.316,-611.328,-974.121,-344.727,988.281,Default
1614035415.320,-977.539,590.332,-630.371,-493.164,Default
1614035415.324,631.836,653.320,-625.977,-979.004,Default
1614035415.328,-922.852,-917.480,-520.996,548.340,Default
1614035415.332,-1000.000,-1000.000,-419.434,-782.227,Default
1614035415.336,229.004,-62.988,-628.906,139.648,Default
1614035415.339,-839.355,-895.508,-674.805,-1000.000,Default
1614035415.343,-218.262,-213.379,-594.727,-61.035,Default
1614035415.347,-1000.000,-1000.000,-399.902,-743.652,Default
1614035415.351,-201.660,-215.820,-557.129,182.617,Default
1614035415.355,-883.789,-837.891,-649.414,-1000.000,Default
1614035415.359,150.391,236.816,-655.273,-187.988,Default
1614035415.363,-1000.000,-1000.000,-396.973,-838.379,Default
1614035415.367,-336.914,-597.168,-314.453,617.188,Default
1614035415.371,-834.961,-954.590,-620.117,-1000.000,Default
1614035415.375,341.309,317.871,-711.914,-573.730,Default
1614035415.379,-1000.000,-1000.000,-434.082,938.477,Default
1614035415.382,-793.457,-1000.000,-358.887,-881.348,Default
1614035415.386,825.195,333.984,-665.527,-215.820,Default
1614035415.390,796.875,815.918,-699.219,-1000.000,Default
1614035415.394,-769.531,-748.535,-489.746,363.770,Default
1614035415.398,-1000.000,-1000.000,-360.840,-758.301,Default
1614035415.402,98.633,-181.641,-658.691,176.270,Default
1614035415.406,-799.805,-871.582,-668.457,-1000.000,Default
1614035415.410,-6.836,-32.715,-539.062,-187.988,Default
1614035415.414,-1000.000,-1000.000,-341.309,-770.996,Default
1614035415.418,-238.281,-283.203,-556.152,315.430,Default
1614035415.422,-820.312,-848.145,-670.410,-1000.000,Default
1614035415.425,242.188,246.094,-666.504,-273.926,Default
1614035415.429,-1000.000,-1000.000,-440.918,-874.512,Default
1614035415.433,-467.285,-768.066,-418.457,830.078,Default
1614035415.437,-889.160,880.859,-663.086,-784.180,Default
1614035415.441,496.094,487.305,-652.344,-700.684,Default
1614035415.445,-1000.000,-1000.000,-461.914,875.000,Default
1614035415.449,-919.434,-1000.000,-372.559,-846.191,Default
1614035415.453,612.305,149.414,-635.742,-57.129,Default
1614035415.457,-974.609,972.168,-581.543,-1000.000,Default
1614035415.461,-438.965,-516.113,-449.707,168.945,Default
1614035415.464,-1000.000,-1000.000,-418.945,-743.164,Default
1614035415.468,-106.445,-201.660,-659.180,186.035,Default
1614035415.472,-811.523,-854.492,-660.645,-1000.000,Default
1614035415.476,118.652,100.098,-644.043,-277.832,Default
1614035415.480,-1000.000,-1000.000,-474.609,-807.129,Default
1614035415.484,-248.047,-420.898,-511.719,494.629,Default
1614035415.488,-816.406,-887.695,-660.645,-1000.000,Default
1614035415.492,242.188,250.000,-691.406,-384.277,Default
1614035415.496,-1000.000,-1000.000,-422.363,-943.359,Default
1614035415.500,-568.848,-937.988,-341.309,994.141,Default
1614035415.504,-948.730,647.461,-655.762,-523.926,Default
1614035415.507,608.887,619.141,-669.434,-859.375,Default
1614035415.511,-939.941,-937.988,-511.230,718.262,Default
1614035415.515,-1000.000,-1000.000,-342.285,-812.500,Default
1614035415.519,276.367,-20.508,-586.426,65.918,Default
1614035415.523,-842.285,-908.203,-695.312,-1000.000,Default
1614035415.527,-221.191,-268.066,-552.734,-48.340,Default
1614035415.531,-1000.000,-1000.000,-382.812,-756.348,Default
1614035415.535,-220.215,-213.379,-614.258,203.125,Default
1614035415.539,-823.730,-840.332,-650.879,-1000.000,Default
1614035415.543,233.887,222.656,-640.625,-276.367,Default
1614035415.547,-1000.000,-1000.000,-276.855,-824.219,Default
1614035415.550,-266.113,-563.477,-317.383,615.234,Default
1614035415.554,-808.594,-939.453,-712.891,-1000.000,Default
1614035415.558,330.078,294.922,-646.973,-491.699,Default
1614035415.562,-1000.000,-1000.000,-384.766,993.652,Default
1614035415.566,-748.535,-1000.000,-404.297,-916.504,Default
1614035415.570,875.977,396.973,-702.148,-284.668,Default
1614035415.574,787.598,773.438,-654.297,-1000.000,Default
1614035415.578,-766.602,-802.246,-467.285,386.719,Default
1614035415.582,-1000.000,-1000.000,-407.715,-763.184,Default
1614035415.586,119.141,-159.180,-662.109,175.293,Default
1614035415.589,-818.359,-876.465,-663.086,-1000.000,Default
1614035415.593,-109.863,-83.984,-578.613,-171.387,Default
1614035415.597,-1000.000,-1000.000,-415.527,-766.602,Default
1614035415.601,-228.027,-257.324,-576.172,312.988,Default
1614035415.605,-825.195,-844.727,-604.980,-1000.000,Default
1614035415.609,242.188,246.582,-596.191,-281.250,Default
1614035415.613,-1000.000,-1000.000,-458.496,-854.004,Default
1614035415.617,-425.781,-718.750,-428.223,753.418,Default
1614035415.621,-868.164,938.965,-658.691,-883.301,Default
1614035415.625,441.406,430.176,-680.664,-687.988,Default
1614035415.629,-1000.000,-1000.000,-491.699,879.395,Default
1614035415.632,-922.363,-1000.000,-376.953,-856.445,Default
1614035415.636,637.207,199.707,-595.215,-100.586,Default
1614035415.640,937.012,931.152,-666.016,-1000.000,Default
1614035415.644,-598.633,-587.891,-546.387,173.340,Default
1614035415.648,-1000.000,-1000.000,-368.164,-745.605,Default
1614035415.652,-0.488,-199.219,-582.031,186.523,Default
1614035415.656,-799.316,-859.863,-660.645,-1000.000,Default
1614035415.660,84.961,72.266,-644.531,-283.203,Default
1614035415.664,-1000.000,-1000.000,-417.969,-779.297,Default
1614035415.668,-192.383,-329.102,-484.863,375.977,Default
1614035415.672,-964.844,975.586,-668.945,-1000.000,Default
1614035415.675,-35.156,-20.996,-687.500,-107.422,Default
1614035415.679,-1000.000,-1000.000,-329.590,-933.105,Default
1614035415.683,-555.664,-826.172,-284.668,875.000,Default
1614035415.687,-948.242,801.270,-657.715,-692.871,Default
1614035415.691,547.363,570.801,-687.012,-838.379,Default
1614035415.695,-1000.000,-958.984,-382.812,715.820,Default
1614035415.699,-1000.000,-1000.000,-237.305,-810.059,Default
1614035415.703,412.109,31.738,-677.734,53.223,Default
1614035415.707,-869.629,-940.430,-693.848,-1000.000,Default
1614035415.711,-271.484,-341.797,-546.875,54.688,Default
1614035415.714,-1000.000,-1000.000,-395.996,-743.164,Default
1614035415.718,-173.340,-210.938,-627.441,192.383,Default
1614035415.722,-812.988,-843.262,-648.438,-1000.000,Default
1614035415.726,227.539,202.148,-615.234,-277.832,Default
1614035415.730,-1000.000,-1000.000,-441.895,-818.848,Default
1614035415.734,-261.230,-524.414,-455.078,571.777,Default
1614035415.738,-811.035,-921.875,-641.602,-1000.000,Default
1614035415.742,239.746,269.531,-571.777,-481.445,Default
1614035415.746,-1000.000,-1000.000,-375.000,988.281,Default
1614035415.750,-643.066,-1000.000,-422.363,-904.297,Default
1614035415.754,978.027,470.703,-682.617,-315.918,Default
1614035415.757,730.469,726.074,-681.152,-987.793,Default
1614035415.761,-816.895,-848.145,-534.180,542.969,Default
1614035415.765,-1000.000,-1000.000,-429.688,-780.273,Default
1614035415.769,163.086,-129.395,-648.438,173.828,Default
1614035415.773,-815.430,-875.488,-682.617,-1000.000,Default
1614035415.777,-109.863,-116.699,-577.637,-162.109,Default
1614035415.781,-1000.000,-1000.000,-366.699,-750.977,Default
1614035415.785,-191.406,-193.848,-500.488,219.727,Default
1614035415.789,-927.734,-942.871,-604.980,-1000.000,Default
1614035415.793,58.594,63.965,-669.434,-91.309,Default
1614035415.797,-1000.000,-1000.000,-412.598,-874.023,Default
1614035415.800,-366.211,-671.875,-389.648,753.418,Default
1614035415.804,-848.633,975.586,-678.711,-887.207,Default
1614035415.808,395.020,383.301,-693.359,-604.980,Default
1614035415.812,-1000.000,-1000.000,-457.520,941.406,Default
1614035415.816,-874.512,-1000.000,-354.980,-883.789,Default
1614035415.820,689.941,238.770,-645.020,-158.691,Default
1614035415.824,929.688,898.438,-678.711,-1000.000,Default
1614035415.828,-596.680,-641.602,-500.488,210.449,Default
1614035415.832,-1000.000,-1000.000,-179.688,-751.953,Default
1614035415.836,7.324,-196.289,-491.699,186.523,Default
1614035415.839,-809.082,-864.258,-709.961,-1000.000,Default
1614035415.843,3.418,31.250,-604.004,-276.367,Default
1614035415.847,-1000.000,-1000.000,-432.129,-796.387,Default
1614035415.851,-237.305,-342.773,-550.781,414.062,Default
1614035415.855,-822.266,-864.258,-674.316,-1000.000,Default
1614035415.859,243.164,248.047,-641.113,-285.156,Default
1614035415.863,-1000.000,-1000.000,-408.203,-881.348,Default
1614035415.867,-515.625,-844.727,-435.059,870.117,Default
1614035415.871,-914.551,785.156,-671.387,-696.289,Default
1614035415.875,538.086,536.133,-638.672,-814.453,Default
1614035415.879,-1000.000,-984.375,-487.305,760.254,Default
1614035415.882,-1000.000,-1000.000,-424.316,-826.660,Default
1614035415.886,438.477,83.496,-639.160,-20.508,Default
1614035415.890,-940.430,-972.168,-642.090,-1000.000,Default
1614035415.894,-413.086,-413.574,-538.574,59.570,Default
1614035415.898,-1000.000,-1000.000,-424.316,-733.887,Default
1614035415.902,-93.750,-189.453,-647.949,157.227,Default
1614035415.906,-861.816,-903.320,-658.691,-1000.000,Default
1614035415.910,104.004,82.031,-634.766,-96.680,Default
1614035415.914,-1000.000,-1000.000,-384.277,-830.078,Default
1614035415.918,-258.789,-482.910,-438.477,524.414,Default
1614035415.922,-815.430,-909.180,-582.520,-1000.000,Default
1614035415.925,240.234,251.953,-589.844,-458.496,Default
1614035415.929,-1000.000,-1000.000,-464.844,-972.656,Default
1614035415.933,-649.414,-995.117,-398.926,-996.582,Default
1614035415.937,998.535,548.340,-659.180,-479.492,Default
1614035415.941,639.648,676.758,-693.848,-979.004,Default
1614035415.945,-928.223,-895.508,-525.879,547.363,Default
1614035415.949,-1000.000,-1000.000,-397.461,-781.738,Default
1614035415.953,209.961,-93.750,-656.250,151.367,Default
1614035415.957,-794.434,-863.281,-689.453,-1000.000,Default
1614035415.961,-189.453,-229.004,-578.613,-5.859,Default
1614035415.964,-1000.000,-1000.000,-379.883,-896.973,Default
1614035415.968,50.781,59.570,-572.754,-76.660,Default
1614035415.972,-845.215,-857.422,-644.531,-1000.000,Default
1614035415.976,234.375,240.234,-672.852,-270.508,Default
1614035415.980,-1000.000,-1000.000,-303.711,-837.402,Default
1614035415.984,-365.723,-619.141,-247.559,618.652,Default
1614035415.988,-842.285,-969.238,-708.008,-1000.000,Default
1614035415.992,346.191,330.078,-694.336,-577.148,Default
1614035415.996,-1000.000,-1000.000,-460.449,933.594,Default
1614035416.000,-786.133,-1000.000,-423.340,-876.953,Default
1614035416.004,805.664,296.875,-680.664,-200.684,Default
1614035416.007,868.652,847.168,-667.969,-1000.000,Default
1614035416.011,-666.992,-704.102,-496.582,355.957,Default
1614035416.015,-1000.000,-1000.000,-359.375,-738.281,Default
1614035416.019,115.234,-150.391,-636.719,126.953,Default
1614035416.023,-905.762,-973.145,-639.648,-1000.000,Default
1614035416.027,-185.547,-192.383,-518.066,30.762,Default
1614035416.031,-1000.000,-1000.000,-415.039,-807.617,Default
1614035416.035,-236.328,-299.805,-573.242,320.801,Default
1614035416.039,-826.172,-858.887,-637.207,-1000.000,Default
1614035416.043,242.188,246.094,-629.395,-269.531,Default
1614035416.047,-1000.000,-1000.000,-456.055,-884.277,Default
1614035416.050,-467.285,-802.246,-423.340,865.723,Default
1614035416.054,-887.695,838.867,-667.969,-737.305,Default
1614035416.058,491.699,496.582,-680.176,-708.008,Default
1614035416.062,-1000.000,-1000.000,-462.891,877.930,Default
1614035416.066,-971.191,-1000.000,-365.723,-850.586,Default
1614035416.070,525.879,123.535,-589.355,-45.898,Default
1614035416.074,-949.707,991.699,-624.512,-1000.000,Default
1614035416.078,-414.551,-482.910,-556.641,90.820,Default
1614035416.082,-1000.000,-1000.000,-403.320,-748.535,Default
1614035416.086,-106.445,-204.590,-632.324,192.383,Default
1614035416.089,-811.035,-851.562,-660.156,-1000.000,Default
1614035416.093,118.164,131.348,-652.832,-279.297,Default
1614035416.097,-1000.000,-1000.000,-451.172,-801.270,Default
1614035416.101,-248.047,-445.801,-450.195,498.047,Default
1614035416.105,-817.383,-895.020,-641.602,-1000.000,Default
1614035416.109,242.188,250.977,-682.129,-300.293,Default
1614035416.113,-1000.000,-1000.000,-394.531,-951.172,Default
1614035416.117,-594.727,-958.984,-255.859,985.840,Default
1614035416.121,-966.797,615.234,-632.324,-497.559,Default
1614035416.125,627.930,640.625,-712.402,-947.266,Default
1614035416.129,-921.387,-926.270,-498.535,602.539,Default
1614035416.132,-1000.000,-1000.000,-394.043,-794.922,Default
1614035416.136,229.004,-38.086,-665.039,66.406,Default
1614035416.140,-839.355,-901.855,-688.965,-1000.000,Default
1614035416.144,-220.215,-243.652,-561.035,-48.340,Default
1614035416.148,-1000.000,-1000.000,-415.039,-756.348,Default
1614035416.152,-220.215,-214.355,-614.258,203.125,Default
1614035416.156,-826.172,-839.844,-651.367,-1000.000,Default
1614035416.160,236.816,230.957,-594.727,-276.367,Default
1614035416.164,-1000.000,-1000.000,-333.008,-826.660,Default
1614035416.168,-309.082,-582.520,-438.965,616.699,Default
1614035416.172,-823.242,-948.242,-677.734,-1000.000,Default
1614035416.175,336.914,307.617,-652.344,-559.082,Default
1614035416.179,-1000.000,-1000.000,-461.426,957.520,Default
1614035416.183,-801.270,-1000.000,-406.738,-897.461,Default
1614035416.187,841.797,378.906,-663.086,-303.711,Default
1614035416.191,748.047,765.625,-666.992,-1000.000,Default
1614035416.195,-876.465,-853.027,-499.512,476.562,Default
1614035416.199,-1000.000,-1000.000,-378.906,-828.613,Default
1614035416.203,199.707,-83.008,-634.277,87.402,Default
1614035416.207,-820.312,-885.742,-572.266,-1000.000,Default
1614035416.211,-49.805,-52.734,-520.020,-171.875,Default
1614035416.214,-1000.000,-1000.000,-458.496,-768.555,Default
1614035416.218,-234.375,-273.926,-557.129,312.988,Default
1614035416.222,-823.242,-847.168,-648.926,-1000.000,Default
1614035416.226,242.676,247.070,-680.176,-280.762,Default
1614035416.230,-1000.000,-1000.000,-450.684,-855.469,Default
1614035416.234,-466.309,-743.164,-425.781,759.277,Default
1614035416.238,-885.742,911.133,-675.781,-876.465,Default
1614035416.242,448.730,462.891,-692.871,-687.988,Default
1614035416.246,-1000.000,-1000.000,-483.398,875.000,Default
1614035416.250,-911.133,-1000.000,-368.164,-851.562,Default
1614035416.254,610.352,168.457,-644.531,-64.941,Default
1614035416.257,-977.539,966.797,-687.988,-1000.000,Default
1614035416.261,-459.473,-529.785,-546.387,145.020,Default
1614035416.265,-1000.000,-1000.000,-274.414,-745.605,Default
1614035416.269,-39.062,-200.684,-530.273,187.988,Default
1614035416.273,-798.828,-856.445,-691.406,-1000.000,Default
1614035416.277,109.863,86.426,-620.117,-276.855,Default
1614035416.281,-1000.000,-1000.000,-406.738,-803.711,Default
1614035416.285,-249.512,-402.832,-497.559,451.660,Default
1614035416.289,-815.918,-880.859,-660.645,-1000.000,Default
1614035416.293,242.188,249.512,-671.875,-377.441,Default
1614035416.297,-1000.000,-1000.000,-277.344,-942.383,Default
1614035416.300,-561.035,-917.480,-242.676,979.004,Default
1614035416.304,-945.312,678.223,-721.680,-542.969,Default
1614035416.308,607.422,609.375,-639.160,-869.629,Default
1614035416.312,-964.355,-943.359,-448.242,701.172,Default
1614035416.316,-1000.000,-1000.000,-441.895,-810.059,Default
1614035416.320,380.371,1.465,-661.621,64.941,Default
1614035416.324,-848.633,-919.434,-633.301,-1000.000,Default
1614035416.328,-221.680,-291.992,-511.719,-41.016,Default
1614035416.332,-1000.000,-1000.000,-431.152,-748.047,Default
1614035416.336,-202.148,-193.848,-637.207,183.594,Default
1614035416.339,-879.883,-897.949,-645.020,-1000.000,Default
1614035416.343,145.996,127.441,-623.047,-188.477,Default
1614035416.347,-1000.000,-1000.000,-429.688,-832.520,Default
1614035416.351,-265.137,-549.316,-464.355,595.703,Default
1614035416.355,-811.523,-935.059,-604.004,-1000.000,Default
1614035416.359,313.477,288.574,-612.793,-486.328,Default
1614035416.363,-1000.000,-1000.000,-472.168,992.676,Default
1614035416.367,-680.176,-1000.000,-391.602,-915.039,Default
1614035416.371,944.824,420.898,-652.832,-287.598,Default
1614035416.375,774.902,758.301,-701.172,-1000.000,Default
1614035416.379,-763.672,-815.918,-528.320,403.320,Default
1614035416.382,-1000.000,-1000.000,-355.957,-765.625,Default
1614035416.386,119.141,-148.438,-619.629,175.293,Default
1614035416.390,-818.359,-877.930,-662.109,-1000.000,Default
1614035416.394,-110.352,-104.492,-597.656,-170.410,Default
1614035416.398,-1000.000,-1000.000,-380.371,-767.090,Default
1614035416.402,-228.027,-247.559,-429.688,296.387,Default
1614035416.406,-824.219,-842.773,-603.516,-1000.000,Default
1614035416.410,240.723,246.094,-703.613,-278.809,Default
1614035416.414,-1000.000,-1000.000,-401.855,-855.469,Default
1614035416.418,-397.461,-706.055,-371.582,753.906,Default
1614035416.422,-856.445,951.172,-703.125,-883.301,Default
1614035416.425,438.965,424.316,-686.523,-682.129,Default
1614035416.429,-1000.000,-1000.000,-466.797,893.066,Default
1614035416.433,-895.020,-1000.000,-398.926,-869.629,Default
1614035416.437,674.316,219.238,-637.207,-158.691,Default
1614035416.441,931.152,929.688,-683.105,-1000.000,Default
1614035416.445,-597.168,-593.750,-457.031,179.199,Default
1614035416.449,-1000.000,-1000.000,-272.949,-749.512,Default
1614035416.453,4.883,-197.266,-662.109,187.500,Default
1614035416.457,-806.641,-862.305,-683.105,-1000.000,Default
1614035416.461,24.902,49.805,-618.164,-278.320,Default
1614035416.464,-1000.000,-1000.000,-468.750,-793.457,Default
1614035416.468,-221.191,-355.957,-551.270,410.156,Default
1614035416.472,-878.418,-931.152,-656.738,-1000.000,Default
1614035416.476,155.762,162.598,-638.184,-271.973,Default
1614035416.480,-1000.000,-1000.000,-411.133,-916.504,Default
1614035416.484,-560.059,-871.094,-372.070,879.395,Default
1614035416.488,-939.941,746.582,-643.066,-692.871,Default
1614035416.492,546.875,566.895,-570.312,-842.285,Default
1614035416.496,-1000.000,-966.797,-409.668,718.750,Default
1614035416.500,-1000.000,-1000.000,-432.617,-812.988,Default
1614035416.504,431.152,46.875,-628.906,30.273,Default
1614035416.507,-923.340,-954.590,-625.977,-1000.000,Default
1614035416.511,-371.094,-371.582,-565.918,57.129,Default
1614035416.515,-1000.000,-1000.000,-435.547,-744.629,Default
1614035416.519,-175.293,-209.961,-645.996,192.871,Default
1614035416.523,-817.383,-844.238,-669.434,-1000.000,Default
1614035416.527,228.516,195.801,-658.691,-277.832,Default
1614035416.531,-1000.000,-1000.000,-419.922,-812.988,Default
1614035416.535,-261.230,-507.324,-383.301,527.344,Default
1614035416.539,-810.547,-914.062,-616.211,-1000.000,Default
1614035416.543,239.258,260.254,-702.637,-477.051,Default
1614035416.547,-1000.000,-1000.000,-451.172,996.094,Default
1614035416.550,-644.531,-1000.000,-385.254,-936.035,Default
1614035416.554,981.934,491.699,-660.156,-376.465,Default
1614035416.558,710.938,718.262,-671.875,-984.375,Default
1614035416.562,-843.750,-855.469,-502.930,542.969,Default
1614035416.566,-1000.000,-1000.000,-352.051,-781.250,Default
1614035416.570,187.500,-118.652,-633.789,172.363,Default
1614035416.574,-813.965,-881.348,-673.340,-1000.000,Default
1614035416.578,-116.211,-142.090,-585.449,-136.230,Default
1614035416.582,-1000.000,-1000.000,-170.410,-762.695,Default
1614035416.586,-228.516,-222.168,-367.188,209.473,Default
1614035416.589,-822.754,-835.938,-721.191,-1000.000,Default
1614035416.593,239.746,244.629,-644.043,-269.043,Default
1614035416.597,-1000.000,-1000.000,-428.711,-848.145,Default
1614035416.601,-368.164,-658.203,-464.844,705.078,Default
1614035416.605,-844.727,996.094,-684.082,-947.754,Default
1614035416.609,405.762,379.395,-681.641,-600.098,Default
1614035416.613,-1000.000,-1000.000,-445.801,935.547,Default
1614035416.617,-792.480,-1000.000,-363.770,-883.301,Default
1614035416.621,797.852,260.742,-671.387,-157.715,Default
1614035416.625,913.574,888.672,-633.301,-1000.000,Default
1614035416.629,-594.238,-653.320,-433.594,203.613,Default
1614035416.632,-1000.000,-1000.000,-400.391,-751.465,Default
1614035416.636,7.324,-194.336,-662.598,186.523,Default
1614035416.640,-809.570,-867.676,-650.879,-1000.000,Default
1614035416.644,3.418,10.742,-621.094,-275.879,Default
1614035416.648,-1000.000,-1000.000,-464.355,-795.898,Default
1614035416.652,-237.305,-336.914,-543.945,407.227,Default
1614035416.656,-821.289,-864.746,-658.691,-1000.000,Default
1614035416.660,243.164,248.535,-669.922,-281.738,Default
1614035416.664,-1000.000,-1000.000,-393.555,-881.348,Default
1614035416.668,-500.000,-835.449,-355.469,869.141,Default
1614035416.672,-906.250,797.363,-620.117,-693.359,Default
1614035416.675,535.156,528.320,-639.160,-826.660,Default
1614035416.679,-1000.000,-987.793,-542.969,749.023,Default
1614035416.683,-1000.000,-1000.000,-420.898,-826.172,Default
1614035416.687,437.988,94.238,-592.773,-31.738,Default
1614035416.691,-940.918,-979.004,-690.918,-1000.000,Default
1614035416.695,-415.039,-431.152,-568.359,64.941,Default
1614035416.699,-1000.000,-1000.000,-384.277,-749.023,Default
1614035416.703,-111.328,-207.520,-629.395,195.801,Default
1614035416.707,-806.152,-847.656,-675.293,-1000.000,Default
1614035416.711,180.664,166.504,-642.578,-259.277,Default
1614035416.714,-1000.000,-1000.000,-412.109,-869.629,Default
1614035416.718,-256.836,-474.609,-439.453,438.965,Default
1614035416.722,-813.965,-903.809,-658.691,-1000.000,Default
1614035416.726,240.723,251.465,-708.984,-486.328,Default
1614035416.730,-1000.000,-1000.000,-280.762,-983.887,Default
1614035416.734,-649.414,-986.816,-150.391,-999.512,Default
1614035416.738,998.535,566.406,-687.012,-495.605,Default
1614035416.742,639.648,666.016,-687.500,-977.051,Default
1614035416.746,-927.246,-905.273,-491.211,547.363,Default
1614035416.750,-1000.000,-1000.000,-414.062,-781.738,Default
1614035416.754,220.703,-79.590,-669.922,147.461,Default
1614035416.757,-824.219,-889.648,-659.668,-1000.000,Default
1614035416.761,-163.086,-187.500,-539.062,-60.059,Default
1614035416.765,-1000.000,-1000.000,-370.117,-750.000,Default
1614035416.769,-224.609,-217.285,-579.102,200.684,Default
1614035416.773,-825.684,-837.402,-638.184,-1000.000,Default
1614035416.777,239.746,239.258,-583.496,-276.367,Default
1614035416.781,-1000.000,-1000.000,-466.797,-827.637,Default
1614035416.785,-365.723,-611.328,-472.168,617.188,Default
1614035416.789,-842.285,-962.891,-655.762,-1000.000,Default
1614035416.793,346.191,332.520,-658.691,-577.148,Default
1614035416.797,-1000.000,-1000.000,-471.191,934.082,Default
1614035416.800,-787.109,-1000.000,-405.762,-877.441,Default
1614035416.804,808.105,309.570,-645.020,-203.613,Default
1614035416.808,858.887,844.238,-674.805,-1000.000,Default
1614035416.812,-688.477,-712.402,-507.324,363.281,Default
1614035416.816,-1000.000,-1000.000,-371.094,-761.719,Default
1614035416.820,100.586,-184.570,-584.961,182.129,Default
1614035416.824,-798.340,-869.629,-602.051,-1000.000,Default
1614035416.828,-6.836,-19.043,-631.836,-260.742,Default
1614035416.832,-1000.000,-1000.000,-435.059,-790.039,Default
1614035416.836,-238.770,-296.387,-528.320,325.684,Default
1614035416.839,-820.312,-851.562,-670.898,-1000.000,Default
1614035416.843,242.188,246.094,-686.523,-270.020,Default
1614035416.847,-1000.000,-1000.000,-410.156,-880.859,Default
1614035416.851,-466.797,-791.504,-348.633,851.562,Default
1614035416.855,-887.695,852.539,-650.879,-755.859,Default
1614035416.859,480.469,490.234,-670.898,-705.078,Default
1614035416.863,-1000.000,-1000.000,-444.336,877.441,Default
1614035416.867,-932.617,-1000.000,-261.719,-851.562,Default
1614035416.871,579.590,131.348,-592.773,-44.922,Default
1614035416.875,-955.566,990.723,-718.262,-1000.000,Default
1614035416.879,-415.039,-486.816,-509.277,84.961,Default
1614035416.882,-1000.000,-1000.000,-362.305,-749.023,Default
1614035416.886,-106.445,-203.613,-657.227,192.871,Default
1614035416.890,-810.547,-852.051,-663.086,-1000.000,Default
1614035416.894,118.652,125.000,-619.629,-277.344,Default
1614035416.898,-1000.000,-1000.000,-462.891,-807.129,Default
1614035416.902,-248.047,-439.453,-503.418,499.512,Default
1614035416.906,-816.895,-893.066,-663.086,-1000.000,Default
1614035416.910,242.188,250.977,-610.840,-385.254,Default
1614035416.914,-1000.000,-1000.000,-364.746,-941.895,Default
1614035416.918,-582.031,-953.125,-435.059,985.840,Default
1614035416.922,-958.496,624.023,-682.617,-500.488,Default
1614035416.925,625.488,629.883,-650.391,-944.824,Default
1614035416.929,-920.410,-932.129,-515.625,605.957,Default
1614035416.933,-1000.000,-1000.000,-433.105,-795.898,Default
1614035416.937,229.004,-35.645,-655.762,63.965,Default
1614035416.941,-839.355,-899.902,-658.691,-1000.000,Default
1614035416.945,-220.215,-240.723,-538.574,-48.340,Default
1614035416.949,-1000.000,-1000.000,-389.160,-756.348,Default
1614035416.953,-220.215,-214.355,-584.473,203.125,Default
1614035416.957,-825.195,-838.867,-575.195,-1000.000,Default
1614035416.961,235.840,230.469,-593.750,-276.367,Default
1614035416.964,-1000.000,-1000.000,-442.871,-826.172,Default
1614035416.968,-290.527,-579.102,-402.832,616.699,Default
1614035416.972,-816.895,-946.289,-633.789,-1000.000,Default
1614035416.976,333.984,302.246,-697.754,-546.387,Default
1614035416.980,-1000.000,-1000.000,-470.703,965.820,Default
1614035416.984,-794.922,-1000.000,-404.297,-907.227,Default
1614035416.988,825.195,370.605,-673.828,-285.645,Default
1614035416.992,797.363,798.340,-687.500,-1000.000,Default
1614035416.996,-769.531,-772.949,-521.973,369.629,Default
1614035417.000,-1000.000,-1000.000,-333.008,-761.719,Default
1614035417.004,114.746,-169.434,-605.957,175.293,Default
1614035417.007,-811.035,-874.023,-687.988,-1000.000,Default
1614035417.011,-71.777,-59.570,-617.188,-171.387,Default
1614035417.015,-1000.000,-1000.000,-329.590,-766.602,Default
1614035417.019,-231.934,-269.531,-482.422,312.988,Default
1614035417.023,-824.707,-846.680,-674.316,-1000.000,Default
1614035417.027,243.164,247.070,-643.066,-281.250,Default
1614035417.031,-1000.000,-1000.000,-399.902,-854.004,Default
1614035417.035,-466.309,-738.281,-395.020,753.418,Default
1614035417.039,-885.742,918.457,-667.480,-882.812,Default
1614035417.043,448.730,449.219,-666.016,-689.453,Default
1614035417.047,-1000.000,-1000.000,-336.914,879.395,Default
1614035417.050,-916.504,-1000.000,-266.113,-857.910,Default
1614035417.054,623.535,170.410,-698.730,-110.352,Default
1614035417.058,979.492,953.613,-649.414,-1000.000,Default
1614035417.062,-526.855,-548.828,-466.309,174.316,Default
1614035417.066,-1000.000,-1000.000,-413.086,-746.582,Default
1614035417.070,-33.203,-200.684,-666.016,186.523,Default
1614035417.074,-799.805,-856.445,-658.203,-1000.000,Default
1614035417.078,110.840,87.402,-632.812,-278.320,Default
1614035417.082,-1000.000,-1000.000,-407.227,-794.922,Default
1614035417.086,-230.957,-380.371,-458.496,412.109,Default
1614035417.089,-872.559,-935.547,-635.254,-1000.000,Default
1614035417.093,153.809,160.645,-637.207,-287.598,Default
1614035417.097,-1000.000,-1000.000,-426.758,-948.242,Default
1614035417.101,-561.523,-916.992,-404.297,958.008,Default
1614035417.105,-946.777,677.246,-611.816,-567.383,Default
1614035417.109,597.656,605.957,-609.375,-882.812,Default
1614035417.113,-974.121,-945.312,-527.832,679.199,Default
1614035417.117,-1000.000,-1000.000,-425.781,-807.617,Default
1614035417.121,395.996,3.418,-645.996,64.453,Default
1614035417.125,-849.609,-920.898,-688.965,-1000.000,Default
1614035417.129,-224.121,-298.340,-570.801,-37.109,Default
1614035417.132,-1000.000,-1000.000,-335.449,-754.883,Default
1614035417.136,-220.703,-211.914,-531.250,201.660,Default
1614035417.140,-823.730,-841.797,-643.555,-1000.000,Default
1614035417.144,234.375,212.402,-654.297,-276.367,Default
1614035417.148,-1000.000,-1000.000,-405.762,-821.777,Default
1614035417.152,-262.695,-546.875,-355.957,592.285,Default
1614035417.156,-810.059,-932.129,-648.438,-1000.000,Default
1614035417.160,281.250,283.203,-709.961,-500.488,Default
1614035417.164,-1000.000,-1000.000,-433.594,985.352,Default
1614035417.168,-666.992,-1000.000,-373.047,-914.551,Default
1614035417.172,948.242,423.828,-689.453,-280.273,Default
1614035417.175,782.715,769.043,-685.547,-1000.000,Default
1614035417.179,-785.156,-832.031,-512.695,388.184,Default
1614035417.183,-1000.000,-1000.000,-406.738,-817.871,Default
1614035417.187,231.934,-55.176,-632.812,86.914,Default
1614035417.191,-827.637,-885.254,-664.551,-1000.000,Default
1614035417.195,-111.816,-96.191,-540.039,-170.898,Default
1614035417.199,-1000.000,-1000.000,-303.711,-769.531,Default
1614035417.203,-228.027,-249.023,-545.898,295.410,Default
1614035417.207,-824.219,-842.285,-677.246,-1000.000,Default
1614035417.211,240.723,246.094,-634.766,-278.809,Default
1614035417.214,-1000.000,-1000.000,-433.105,-855.469,Default
1614035417.218,-397.949,-704.102,-429.688,753.906,Default
1614035417.222,-856.445,952.637,-671.875,-881.836,Default
1614035417.226,438.965,417.969,-665.527,-693.359,Default
1614035417.230,-1000.000,-1000.000,-483.887,885.742,Default
1614035417.234,-896.973,-1000.000,-414.062,-867.188,Default
1614035417.238,671.387,223.145,-640.137,-159.668,Default
1614035417.242,931.641,924.805,-582.031,-1000.000,Default
1614035417.246,-597.168,-602.051,-455.566,179.688,Default
1614035417.250,-1000.000,-1000.000,-414.551,-749.512,Default
1614035417.254,4.883,-197.266,-630.371,187.012,Default
1614035417.257,-806.641,-862.793,-635.742,-1000.000,Default
1614035417.261,23.926,47.363,-628.418,-276.367,Default
1614035417.265,-1000.000,-1000.000,-467.285,-801.270,Default
1614035417.269,-239.746,-373.047,-489.746,429.199,Default
1614035417.273,-821.777,-874.512,-637.695,-1000.000,Default
1614035417.277,243.652,250.977,-667.969,-371.582,Default
1614035417.281,-1000.000,-1000.000,-389.160,-909.668,Default
1614035417.285,-548.340,-865.723,-331.055,880.859,Default
1614035417.289,-931.641,756.348,-622.070,-695.801,Default
1614035417.293,544.434,566.895,-691.406,-842.773,Default
1614035417.297,-1000.000,-967.285,-506.348,720.215,Default
1614035417.300,-1000.000,-1000.000,-418.945,-816.406,Default
1614035417.304,413.574,46.875,-669.434,22.461,Default
1614035417.308,-871.582,-942.383,-696.777,-1000.000,Default
1614035417.312,-283.691,-349.609,-552.246,28.809,Default
1614035417.316,-1000.000,-1000.000,-339.844,-742.188,Default
1614035417.320,-99.121,-192.383,-571.289,177.734,Default
1614035417.324,-854.980,-899.414,-660.645,-1000.000,Default
1614035417.328,131.836,110.840,-609.375,-189.453,Default
1614035417.332,-1000.000,-1000.000,-404.785,-824.219,Default
1614035417.336,-262.695,-506.836,-487.305,527.344,Default
1614035417.339,-812.988,-916.016,-687.012,-1000.000,Default
1614035417.343,239.258,255.859,-672.852,-477.539,Default
1614035417.347,-1000.000,-1000.000,-227.539,998.047,Default
1614035417.351,-646.484,-1000.000,-177.246,-941.406,Default
1614035417.355,988.770,488.281,-692.871,-386.719,Default
1614035417.359,681.641,710.938,-687.500,-982.910,Default
1614035417.363,-881.348,-863.770,-512.207,544.434,Default
1614035417.367,-1000.000,-1000.000,-415.039,-783.691,Default
1614035417.371,209.473,-118.652,-666.504,175.293,Default
1614035417.375,-812.500,-871.582,-658.203,-1000.000,Default
1614035417.379,-118.164,-121.582,-557.617,-165.527,Default
1614035417.382,-1000.000,-1000.000,-403.809,-768.066,Default
1614035417.386,-228.516,-220.215,-586.914,213.379,Default
1614035417.390,-822.754,-833.984,-598.633,-1000.000,Default
1614035417.394,239.746,243.652,-586.426,-269.043,Default
1614035417.398,-1000.000,-1000.000,-453.125,-847.656,Default
1614035417.402,-365.723,-663.574,-431.641,703.613,Default
1614035417.406,-841.797,990.723,-678.711,-950.684,Default
1614035417.410,340.332,364.258,-681.641,-594.238,Default
1614035417.414,-1000.000,-1000.000,-443.359,938.965,Default
1614035417.418,-842.285,-1000.000,-373.535,-884.277,Default
1614035417.422,712.891,256.836,-591.309,-157.715,Default
1614035417.425,927.734,883.301,-618.652,-1000.000,Default
1614035417.429,-597.168,-660.645,-553.223,206.543,Default
1614035417.433,-1000.000,-1000.000,-368.164,-751.465,Default
1614035417.437,15.625,-194.336,-594.727,186.523,Default
1614035417.441,-808.594,-867.188,-685.059,-1000.000,Default
1614035417.445,2.441,10.254,-645.508,-274.902,Default
1614035417.449,-1000.000,-1000.000,-409.668,-794.922,Default
1614035417.453,-237.305,-332.520,-493.164,379.395,Default
1614035417.457,-821.289,-862.793,-680.664,-1000.000,Default
1614035417.461,242.676,248.047,-685.547,-276.855,Default
1614035417.464,-1000.000,-1000.000,-387.695,-883.789,Default
1614035417.468,-490.723,-832.031,-345.703,869.141,Default
1614035417.472,-901.367,801.758,-673.828,-690.918,Default
1614035417.476,534.180,528.809,-704.590,-836.426,Default
1614035417.480,-1000.000,-987.305,-386.719,741.211,Default
1614035417.484,-1000.000,-1000.000,-257.324,-826.172,Default
1614035417.488,452.637,96.680,-674.805,-48.340,Default
1614035417.492,-942.383,-981.445,-683.594,-1000.000,Default
1614035417.496,-414.551,-435.547,-513.672,67.383,Default
1614035417.500,-1000.000,-1000.000,-402.344,-750.000,Default
1614035417.504,-107.910,-206.543,-650.879,194.336,Default
1614035417.507,-809.570,-849.121,-645.020,-1000.000,Default
1614035417.511,135.742,154.297,-613.770,-277.832,Default
1614035417.515,-1000.000,-1000.000,-418.457,-812.988,Default
1614035417.519,-250.488,-475.098,-479.492,526.855,Default
1614035417.523,-817.383,-905.762,-657.227,-1000.000,Default
1614035417.527,241.699,252.930,-599.609,-477.051,Default
1614035417.531,-1000.000,-1000.000,-443.359,-977.051,Default
1614035417.535,-649.414,-982.422,-432.617,997.559,Default
1614035417.539,998.535,572.754,-661.621,-497.070,Default
1614035417.543,639.648,667.480,-661.621,-979.492,Default
1614035417.547,-927.246,-904.785,-515.137,550.781,Default
1614035417.550,-1000.000,-1000.000,-396.484,-784.668,Default
1614035417.554,220.703,-72.754,-613.281,107.422,Default
1614035417.558,-824.707,-888.672,-635.742,-1000.000,Default
1614035417.562,-164.062,-189.941,-564.453,-54.199,Default
1614035417.566,-1000.000,-1000.000,-382.812,-752.930,Default
1614035417.570,-224.609,-217.285,-516.602,202.148,Default
1614035417.574,-825.195,-836.914,-610.352,-1000.000,Default
1614035417.578,239.746,240.234,-681.152,-276.367,Default
1614035417.582,-1000.000,-1000.000,-441.895,-827.148,Default
1614035417.586,-365.723,-607.422,-413.574,617.188,Default
1614035417.589,-842.773,-960.449,-680.664,-1000.000,Default
1614035417.593,346.191,330.078,-701.172,-580.078,Default
1614035417.597,-1000.000,-1000.000,-453.125,939.453,Default
1614035417.601,-787.109,-1000.000,-347.656,-887.695,Default
1614035417.605,808.105,317.871,-639.648,-242.188,Default
1614035417.609,859.375,841.797,-672.363,-1000.000,Default
1614035417.613,-689.941,-715.820,-504.395,366.211,Default
1614035417.617,-1000.000,-1000.000,-193.848,-763.672,Default
1614035417.621,108.398,-183.594,-489.746,181.641,Default
1614035417.625,-797.363,-870.117,-719.238,-1000.000,Default
1614035417.629,-7.324,-23.438,-604.004,-255.371,Default
1614035417.632,-1000.000,-1000.000,-438.965,-788.574,Default
1614035417.636,-238.281,-291.504,-577.148,324.707,Default
1614035417.640,-820.312,-850.586,-663.086,-1000.000,Default
1614035417.644,242.188,246.094,-666.016,-273.438,Default
1614035417.648,-1000.000,-1000.000,-447.754,-871.094,Default
1614035417.652,-466.797,-784.668,-418.457,815.430,Default
1614035417.656,-887.207,860.840,-666.504,-803.223,Default
1614035417.660,473.633,487.305,-613.770,-697.754,Default
1614035417.664,-1000.000,-1000.000,-425.293,876.953,Default
1614035417.668,-942.383,-1000.000,-435.547,-854.004,Default
1614035417.672,562.500,132.324,-664.551,-42.480,Default
1614035417.675,-952.637,989.746,-657.715,-1000.000,Default
1614035417.679,-415.527,-488.281,-541.016,67.383,Default
1614035417.683,-1000.000,-1000.000,-415.039,-750.000,Default
1614035417.687,-98.633,-204.102,-647.949,194.336,Default
1614035417.691,-809.082,-851.562,-654.297,-1000.000,Default
1614035417.695,117.676,128.906,-626.465,-276.855,Default
1614035417.699,-1000.000,-1000.000,-454.102,-808.105,Default
1614035417.703,-248.047,-434.082,-497.070,493.164,Default
1614035417.707,-816.406,-890.137,-580.566,-1000.000,Default
1614035417.711,242.676,250.000,-609.375,-415.039,Default
1614035417.714,-1000.000,-1000.000,-435.547,-955.566,Default
1614035417.718,-565.430,-950.195,-356.934,989.258,Default
1614035417.722,-948.242,627.930,-642.578,-494.629,Default
1614035417.726,623.047,633.789,-669.922,-975.098,Default
1614035417.730,-922.363,-930.176,-532.227,565.430,Default
1614035417.734,-1000.000,-1000.000,-387.207,-789.551,Default
1614035417.738,245.605,-30.273,-608.398,63.477,Default
1614035417.742,-840.332,-900.391,-695.312,-1000.000,Default
1614035417.746,-220.703,-245.605,-584.473,-47.852,Default
1614035417.750,-1000.000,-1000.000,-300.293,-756.348,Default
1614035417.754,-220.215,-214.355,-511.719,203.125,Default
1614035417.757,-823.730,-839.355,-692.871,-1000.000,Default
1614035417.761,233.887,228.516,-658.691,-276.367,Default
1614035417.765,-1000.000,-1000.000,-364.746,-826.172,Default
1614035417.769,-266.602,-575.195,-391.602,614.258,Default
1614035417.773,-808.594,-944.824,-698.242,-1000.000,Default
1614035417.777,331.055,303.223,-672.363,-555.664,Default
1614035417.781,-1000.000,-1000.000,-433.105,960.449,Default
1614035417.785,-783.203,-1000.000,-383.301,-905.273,Default
1614035417.789,838.867,377.441,-658.691,-286.621,Default
1614035417.793,794.434,793.945,-669.922,-1000.000,Default
1614035417.797,-768.555,-777.832,-414.551,369.629,Default
1614035417.800,-1000.000,-1000.000,-250.000,-761.719,Default
1614035417.804,117.676,-167.480,-654.297,175.293,Default
1614035417.808,-815.430,-875.000,-662.109,-1000.000,Default
1614035417.812,-95.703,-66.895,-561.523,-171.875,Default
1614035417.816,-1000.000,-1000.000,-482.910,-766.602,Default
1614035417.820,-229.492,-267.578,-595.215,312.988,Default
1614035417.824,-826.172,-846.680,-659.180,-1000.000,Default
1614035417.828,243.652,247.070,-665.527,-281.250,Default
1614035417.832,-1000.000,-1000.000,-441.406,-854.004,Default
1614035417.836,-466.309,-732.910,-419.434,753.418,Default
1614035417.839,-885.742,924.316,-664.062,-883.301,Default
1614035417.843,448.730,446.289,-661.133,-688.965,Default
1614035417.847,-1000.000,-1000.000,-455.078,878.906,Default
1614035417.851,-916.504,-1000.000,-413.086,-858.887,Default
1614035417.855,625.977,179.199,-614.258,-93.262,Default
1614035417.859,972.656,954.102,-604.004,-1000.000,Default
1614035417.863,-528.809,-550.781,-544.434,132.812,Default
1614035417.867,-1000.000,-1000.000,-412.109,-748.535,Default
1614035417.871,-75.684,-199.707,-649.414,189.941,Default
1614035417.875,-808.105,-857.910,-675.293,-1000.000,Default
1614035417.879,114.258,78.125,-630.371,-277.832,Default
1614035417.882,-1000.000,-1000.000,-433.105,-810.059,Default
1614035417.886,-248.535,-395.996,-474.121,508.301,Default
1614035417.890,-816.406,-879.395,-632.812,-1000.000,Default
1614035417.894,242.188,249.512,-659.668,-443.848,Default
1614035417.898,-1000.000,-1000.000,-446.289,-965.820,Default
1614035417.902,-561.035,-908.691,-323.730,992.676,Default
1614035417.906,-941.895,691.895,-630.371,-494.629,Default
1614035417.910,576.660,599.121,-704.102,-982.910,Default
1614035417.914,-987.793,-949.219,-509.277,554.199,Default
1614035417.918,-1000.000,-1000.000,-428.223,-787.598,Default
1614035417.922,393.555,8.789,-678.223,66.895,Default
1614035417.925,-848.633,-923.340,-672.363,-1000.000,Default
1614035417.929,-224.609,-304.199,-542.969,-48.828,Default
1614035417.933,-1000.000,-1000.000,-458.496,-756.348,Default
1614035417.937,-210.449,-212.402,-637.695,203.125,Default
1614035417.941,-820.801,-841.309,-648.438,-1000.000,Default
1614035417.945,232.910,214.844,-579.590,-276.367,Default
1614035417.949,-1000.000,-1000.000,-403.809,-827.637,Default
1614035417.953,-262.207,-543.945,-509.766,617.188,Default
1614035417.957,-810.547,-930.664,-660.156,-1000.000,Default
1614035417.961,266.602,280.762,-632.812,-576.172,Default
1614035417.964,-1000.000,-1000.000,-511.230,935.547,Default
1614035417.968,-655.273,-1000.000,-485.352,-886.719,Default
1614035417.972,960.449,435.059,-658.691,-152.832,Default
1614035417.976,768.555,746.094,-611.816,-1000.000,Default
1614035417.980,-789.551,-837.891,-539.062,179.199,Default
1614035417.984,-1000.000,-1000.000,-514.648,-748.535,Default
1614035417.988,220.215,-72.754,-618.164,185.059,Default
1614035417.992,-811.523,-870.605,-524.414,-1000.000,Default
1614035417.996,-118.652,-147.949,-520.020,-251.953,Default
1614035418.000,-1000.000,-1000.000,-573.242,-790.039,Default
1614035418.004,-228.516,-219.727,-622.070,416.016,Default
1614035418.007,-821.289,-834.473,-593.750,-1000.000,Default
1614035418.011,237.793,245.605,-613.770,-284.668,Default
1614035418.015,-1000.000,-1000.000,-561.523,-880.859,Default
1614035418.019,-336.426,-622.070,-529.297,876.465,Default
1614035418.023,-832.520,-973.145,-590.820,-720.215,Default
1614035418.027,341.309,360.352,-610.840,-709.473,Default
1614035418.031,-1000.000,-1000.000,-507.324,876.465,Default
1614035418.035,-785.645,-1000.000,-463.867,-848.633,Default
1614035418.039,801.270,287.109,-586.914,-32.715,Default
1614035418.043,884.766,867.676,-655.762,-1000.000,Default
1614035418.047,-649.902,-681.152,-536.133,93.750,Default
1614035418.050,-1000.000,-1000.000,-465.332,-747.070,Default
1614035418.054,77.148,-188.477,-659.180,191.895,Default
1614035418.058,-800.781,-867.188,-642.578,-1000.000,Default
1614035418.062,-4.395,-0.488,-583.496,-277.832,Default
1614035418.066,-1000.000,-1000.000,-531.738,-810.547,Default
1614035418.070,-238.281,-315.430,-618.164,524.902,Default
1614035418.074,-820.312,-857.422,-604.492,-1000.000,Default
1614035418.078,242.188,247.559,-619.141,-426.270,Default
1614035418.082,-1000.000,-1000.000,-375.000,-955.078,Default
1614035418.086,-467.773,-808.105,-366.211,989.746,Default
1614035418.089,-889.160,831.055,-688.477,-497.559,Default
1614035418.093,503.418,514.160,-630.371,-965.332,Default
1614035418.097,-1000.000,-993.164,-512.695,574.219,Default
1614035418.101,-968.262,-1000.000,-528.809,-789.551,Default
1614035418.105,534.180,111.328,-666.016,86.914,Default
1614035418.109,-950.684,-986.328,-639.160,-1000.000,Default
1614035418.113,-414.551,-447.266,-556.641,-51.758,Default
1614035418.117,-1000.000,-1000.000,-497.070,-754.883,Default
1614035418.121,-106.445,-206.055,-651.367,202.637,Default
1614035418.125,-811.035,-849.121,-596.680,-1000.000,Default
1614035418.129,118.652,149.414,-577.148,-276.367,Default
1614035418.132,-1000.000,-1000.000,-542.480,-824.707,Default
1614035418.136,-248.047,-457.031,-596.191,606.445,Default
1614035418.140,-817.383,-897.949,-571.777,-1000.000,Default
1614035418.144,242.188,251.465,-549.316,-542.480,Default
1614035418.148,-1000.000,-1000.000,-533.203,965.820,Default
1614035418.152,-611.816,-966.797,-510.742,-907.227,Default
1614035418.156,-977.539,597.656,-647.949,-285.645,Default
1614035418.160,631.836,663.574,-643.066,-1000.000,Default
1614035418.164,-922.852,-908.203,-514.648,369.629,Default
1614035418.168,-1000.000,-1000.000,-472.656,-761.719,Default
1614035418.172,229.004,-53.223,-573.730,175.293,Default
1614035418.175,-839.355,-886.719,-574.219,-1000.000,Default
1614035418.179,-220.215,-197.754,-602.539,-170.898,Default
1614035418.183,-1000.000,-1000.000,-496.094,-766.602,Default
1614035418.187,-220.215,-217.285,-615.234,303.711,Default
1614035418.191,-827.148,-836.914,-633.301,-1000.000,Default
1614035418.195,238.770,237.793,-615.723,-279.785,Default
1614035418.199,-1000.000,-1000.000,-417.480,-854.492,Default
1614035418.203,-336.914,-595.215,-426.270,753.906,Default
1614035418.207,-833.008,-953.613,-656.250,-884.766,Default
1614035418.211,341.309,322.266,-638.672,-675.293,Default
1614035418.214,-1000.000,-1000.000,-461.426,890.137,Default
1614035418.218,-793.457,-1000.000,-430.176,-862.793,Default
1614035418.222,825.195,333.984,-651.367,-118.652,Default
1614035418.226,797.363,839.355,-656.250,-1000.000,Default
1614035418.230,-770.508,-720.703,-449.219,175.293,Default
1614035418.234,-1000.000,-1000.000,-354.004,-747.070,Default
1614035418.238,108.398,-174.805,-666.016,187.012,Default
1614035418.242,-801.758,-868.164,-648.926,-1000.000,Default
1614035418.246,-23.438,-26.367,-573.242,-276.855,Default
1614035418.250,-1000.000,-1000.000,-496.094,-799.805,Default
1614035418.254,-236.816,-289.062,-602.539,427.734,Default
1614035418.257,-821.289,-849.609,-623.535,-1000.000,Default
1614035418.261,242.676,244.141,-573.730,-338.379,Default
1614035418.265,-1000.000,-1000.000,-386.719,-911.133,Default
1614035418.269,-466.797,-798.828,-444.336,913.086,Default
1614035418.273,-886.719,843.262,-655.762,-636.719,Default
1614035418.277,458.984,499.023,-613.770,-850.098,Default
1614035418.281,-1000.000,-1000.000,-531.250,720.215,Default
1614035418.285,-910.645,-1000.000,-517.578,-813.477,Default
1614035418.289,604.492,143.066,-622.070,15.625,Default
1614035418.293,-957.031,993.164,-582.031,-1000.000,Default
1614035418.297,-415.039,-483.887,-544.922,57.129,Default
1614035418.300,-1000.000,-1000.000,-458.008,-738.281,Default
1614035418.304,-71.289,-186.035,-642.578,174.805,Default
1614035418.308,-863.770,-907.227,-624.023,-1000.000,Default
1614035418.312,28.320,44.922,-585.449,-189.453,Default
1614035418.316,-1000.000,-1000.000,-494.141,-824.219,Default
1614035418.320,-248.535,-439.453,-482.910,527.832,Default
1614035418.324,-820.801,-894.043,-561.035,-1000.000,Default
1614035418.328,242.188,248.535,-666.504,-472.168,Default
1614035418.332,-1000.000,-1000.000,-450.195,994.141,Default
1614035418.336,-638.184,-973.145,-398.926,-925.781,Default
1614035418.339,-994.629,593.262,-667.969,-356.445,Default
1614035418.343,637.207,650.879,-667.969,-984.863,Default
1614035418.347,-925.293,-920.410,-504.883,542.480,Default
1614035418.351,-1000.000,-1000.000,-390.137,-775.879,Default
1614035418.355,229.004,-58.105,-625.000,164.551,Default
1614035418.359,-838.867,-889.160,-652.832,-1000.000,Default
1614035418.363,-219.238,-201.172,-564.941,-62.988,Default
1614035418.367,-1000.000,-1000.000,-144.043,-748.535,Default
1614035418.371,-220.215,-216.797,-369.629,200.684,Default
1614035418.375,-828.613,-837.402,-724.121,-1000.000,Default
1614035418.379,240.234,237.793,-637.207,-273.926,Default
1614035418.382,-1000.000,-1000.000,-366.699,-835.938,Default
1614035418.386,-365.723,-610.352,-421.387,653.809,Default
1614035418.390,-842.773,-963.379,-685.059,-1000.000,Default
1614035418.394,346.191,318.359,-686.035,-583.496,Default
1614035418.398,-1000.000,-1000.000,-466.309,936.523,Default
1614035418.402,-791.016,-1000.000,-378.906,-884.277,Default
1614035418.406,821.289,312.988,-645.020,-158.691,Default
1614035418.410,811.523,836.426,-621.094,-1000.000,Default
1614035418.414,-741.211,-722.168,-457.031,210.449,Default
1614035418.418,-1000.000,-1000.000,-420.898,-751.953,Default
1614035418.422,55.664,-185.547,-661.621,186.523,Default
1614035418.425,-805.176,-870.117,-636.230,-1000.000,Default
1614035418.429,-2.441,-20.996,-597.656,-276.367,Default
1614035418.433,-1000.000,-1000.000,-465.332,-798.340,Default
1614035418.437,-237.793,-295.410,-548.340,419.434,Default
1614035418.441,-820.312,-852.051,-632.812,-1000.000,Default
1614035418.445,242.188,246.094,-661.133,-326.172,Default
1614035418.449,-1000.000,-1000.000,-435.059,-895.020,Default
1614035418.453,-466.309,-790.527,-387.695,874.023,Default
1614035418.457,-883.301,853.516,-589.844,-691.895,Default
1614035418.461,439.453,484.863,-610.840,-847.168,Default
1614035418.464,-1000.000,-1000.000,-539.062,725.586,Default
1614035418.468,-989.258,-1000.000,-423.828,-821.289,Default
1614035418.472,479.004,125.977,-625.000,-33.691,Default
1614035418.476,-943.848,989.258,-698.730,-1000.000,Default
1614035418.480,-414.551,-487.305,-561.035,65.430,Default
1614035418.484,-1000.000,-1000.000,-370.605,-749.023,Default
1614035418.488,-106.445,-203.613,-610.840,193.848,Default
1614035418.492,-810.547,-852.051,-664.551,-1000.000,Default
1614035418.496,118.652,124.512,-662.109,-277.832,Default
1614035418.500,-1000.000,-1000.000,-343.750,-811.035,Default
1614035418.504,-248.047,-438.477,-343.262,525.391,Default
1614035418.507,-817.871,-892.578,-688.477,-1000.000,Default
1614035418.511,242.188,250.488,-676.270,-434.570,Default
1614035418.515,-1000.000,-1000.000,-370.117,-958.496,Default
1614035418.519,-614.258,-953.613,-352.539,989.746,Default
1614035418.523,-980.957,621.094,-687.012,-491.699,Default
1614035418.527,639.160,643.555,-686.035,-990.234,Default
1614035418.531,-941.895,-947.266,-505.371,572.754,Default
1614035418.535,-1000.000,-1000.000,-406.250,-844.238,Default
1614035418.539,317.383,57.129,-643.066,-24.902,Default
1614035418.543,-850.098,-913.574,-659.668,-1000.000,Default
1614035418.547,-219.727,-249.512,-486.328,-48.340,Default
1614035418.550,-1000.000,-1000.000,-269.043,-758.789,Default
1614035418.554,-220.215,-213.867,-594.238,203.125,Default
1614035418.558,-827.148,-840.332,-650.391,-1000.000,Default
1614035418.562,238.281,224.609,-593.262,-276.367,Default
1614035418.566,-1000.000,-1000.000,-444.824,-827.148,Default
1614035418.570,-330.566,-580.566,-452.637,617.188,Default
1614035418.574,-830.566,-948.242,-683.594,-1000.000,Default
1614035418.578,340.332,304.688,-684.082,-576.660,Default
1614035418.582,-1000.000,-1000.000,-440.918,950.195,Default
1614035418.586,-793.945,-1000.000,-377.930,-901.367,Default
1614035418.589,825.195,371.582,-661.133,-288.086,Default
1614035418.593,797.363,795.898,-676.758,-1000.000,Default
1614035418.597,-768.555,-775.391,-534.668,369.629,Default
1614035418.601,-1000.000,-1000.000,-403.320,-761.230,Default
1614035418.605,119.629,-169.434,-582.520,175.293,Default
1614035418.609,-818.359,-877.930,-599.121,-1000.000,Default
1614035418.613,-110.352,-73.730,-622.559,-171.387,Default
1614035418.617,-1000.000,-1000.000,-395.020,-766.602,Default
1614035418.621,-228.027,-269.043,-508.301,309.570,Default
1614035418.625,-827.148,-847.656,-679.199,-1000.000,Default
1614035418.629,243.652,247.070,-696.777,-280.762,Default
1614035418.632,-1000.000,-1000.000,-375.000,-854.492,Default
1614035418.636,-466.309,-737.793,-300.781,753.418,Default
1614035418.640,-885.742,918.457,-649.902,-882.324,Default
1614035418.644,448.730,446.777,-704.590,-692.383,Default
1614035418.648,-1000.000,-1000.000,-450.195,884.277,Default
1614035418.652,-920.410,-1000.000,-292.480,-865.234,Default
1614035418.656,635.254,171.387,-661.621,-148.438,Default
1614035418.660,941.406,948.730,-717.773,-1000.000,Default
1614035418.664,-579.102,-555.664,-475.098,178.223,Default
1614035418.668,-1000.000,-1000.000,-299.316,-749.023,Default
1614035418.672,-65.918,-200.684,-662.598,187.012,Default
1614035418.675,-807.129,-856.445,-690.918,-1000.000,Default
1614035418.679,113.770,86.914,-635.742,-276.855,Default
1614035418.683,-1000.000,-1000.000,-407.227,-801.758,Default
1614035418.687,-249.023,-399.902,-451.172,430.176,Default
1614035418.691,-816.406,-879.395,-672.363,-1000.000,Default
1614035418.695,242.188,248.535,-637.695,-383.301,Default
1614035418.699,-1000.000,-1000.000,-347.656,-916.016,Default
1614035418.703,-561.035,-920.410,-386.230,889.160,Default
1614035418.707,-941.406,674.805,-693.848,-673.828,Default
1614035418.711,578.613,604.004,-672.363,-877.441,Default
1614035418.715,-975.098,-946.777,-529.297,673.828,Default
1614035418.718,-1000.000,-1000.000,-420.898,-812.012,Default
1614035418.722,348.633,1.953,-624.023,52.734,Default
1614035418.726,-846.191,-922.363,-654.297,-1000.000,Default
1614035418.730,-223.145,-299.316,-533.203,-46.875,Default
1614035418.734,-1000.000,-1000.000,-294.922,-757.324,Default
1614035418.738,-220.215,-211.914,-519.043,203.613,Default
1614035418.742,-823.730,-841.797,-620.117,-1000.000,Default
1614035418.746,233.887,212.891,-645.996,-276.367,Default
1614035418.750,-1000.000,-1000.000,-451.172,-816.895,Default
1614035418.754,-262.695,-551.758,-431.152,550.781,Default
1614035418.757,-810.059,-935.059,-662.109,-1000.000,Default
1614035418.761,279.785,284.668,-702.148,-494.141,Default
1614035418.765,-1000.000,-1000.000,-449.707,986.328,Default
1614035418.769,-687.500,-1000.000,-368.652,-924.805,Default
1614035418.773,928.711,429.199,-673.828,-319.336,Default
1614035418.777,778.320,752.441,-685.059,-1000.000,Default
1614035418.781,-764.160,-821.777,-503.418,417.969,Default
1614035418.785,-1000.000,-1000.000,-303.223,-768.066,Default
1614035418.789,119.141,-148.438,-557.617,175.293,Default
1614035418.793,-818.848,-879.883,-702.148,-1000.000,Default
1614035418.797,-109.863,-113.770,-609.863,-165.527,Default
1614035418.800,-1000.000,-1000.000,-333.496,-768.555,Default
1614035418.804,-228.027,-245.117,-517.578,213.379,Default
