timestamps,TP9,AF7,AF8,TP10,Marker0
1614035079.138,534.180,550.781,-701.660,-1000.000,Default
1614035079.142,-1000.000,-977.539,-504.883,497.559,0
1614035079.146,-1000.000,-1000.000,-444.336,-791.504,0
1614035079.150,438.477,64.941,-662.109,58.594,0
1614035079.154,-940.430,-965.332,-683.594,-1000.000,0
1614035079.158,-415.039,-397.949,-535.156,-129.395,0
1614035079.162,-1000.000,-1000.000,-389.648,-773.438,0
1614035079.166,-114.746,-208.496,-642.090,213.379,0
1614035079.169,-803.223,-846.680,-630.371,-1000.000,1
1614035079.173,224.121,182.617,-595.703,-278.809,1
1614035079.177,-1000.000,-1000.000,-498.047,-803.711,1
1614035079.181,-226.074,-459.961,-492.676,502.441,1
1614035079.185,-915.527,982.910,-650.879,-983.398,1
1614035079.189,58.105,72.266,-684.082,-411.621,1
1614035079.193,-1000.000,-1000.000,-412.109,912.109,1
1614035079.197,-641.602,-1000.000,-354.492,-908.691,1
1614035079.201,996.582,535.645,-623.047,-313.965,1
1614035079.205,638.184,668.457,-644.531,-1000.000,1
1614035079.208,-927.246,-907.715,-477.051,370.117,0
1614035079.212,-1000.000,-1000.000,-376.465,-774.414,0
1614035079.216,217.773,-85.449,-558.105,186.523,0
1614035079.220,-818.848,-887.207,-597.168,-1000.000,0
1614035079.224,-143.066,-180.664,-613.770,-269.531,0
1614035079.228,-1000.000,-1000.000,-430.176,-797.852,0
1614035079.232,-228.516,-219.238,-559.570,281.250,0
1614035079.236,-814.941,-829.102,-661.133,-1000.000,1
1614035079.240,218.262,228.027,-703.125,-337.891,1
1614035079.244,-1000.000,-1000.000,-454.102,-880.859,1
1614035079.247,-229.492,-520.996,-401.855,757.324,1
1614035079.251,-836.914,-971.191,-616.211,-856.934,1
1614035079.255,338.379,321.777,-683.594,-822.266,1
1614035079.259,-1000.000,-1000.000,-421.875,746.094,1
1614035079.263,-792.480,-1000.000,-241.211,-847.656,1
1614035079.267,820.801,321.289,-624.512,-150.879,1
1614035079.271,813.965,828.613,-704.102,-1000.000,1
1614035079.275,-749.023,-733.398,-528.320,78.125,1
1614035079.279,-1000.000,-1000.000,-382.812,-757.324,1
1614035079.283,106.934,-183.594,-625.488,195.801,1
1614035079.287,-798.340,-871.582,-656.250,-1000.000,0
1614035079.290,-7.812,-30.273,-611.816,-274.414,0
1614035079.294,-1000.000,-1000.000,-444.824,-800.293,0
1614035079.298,-238.770,-287.109,-519.531,390.625,0
1614035079.302,-820.312,-849.609,-636.719,-1000.000,0
1614035079.306,242.188,246.582,-632.812,-379.395,0
1614035079.310,-1000.000,-1000.000,-275.879,-910.156,0
1614035079.314,-466.309,-771.484,-311.035,854.492,0
1614035079.318,-885.742,877.930,-688.477,-700.195,1
1614035079.322,448.730,471.191,-674.316,-931.641,1
1614035079.326,-1000.000,-1000.000,-517.578,612.305,1
1614035079.329,-908.691,-1000.000,-456.055,-813.965,1
1614035079.333,603.516,151.367,-633.301,-38.574,1
1614035079.337,-954.590,973.145,-679.688,-1000.000,1
1614035079.341,-431.152,-517.578,-558.105,-35.645,1
1614035079.345,-1000.000,-1000.000,-383.301,-763.672,1
1614035079.349,-6.836,-201.660,-579.102,205.078,1
1614035079.353,-791.992,-854.492,-594.238,-1000.000,1
1614035079.357,105.957,99.121,-667.969,-275.879,1
1614035079.361,-1000.000,-1000.000,-488.770,-812.500,1
1614035079.365,-250.000,-407.715,-498.535,498.535,1
1614035079.369,-816.406,-881.348,-659.180,-1000.000,1
1614035079.372,242.188,249.023,-707.031,-532.227,0
1614035079.376,-1000.000,-1000.000,-458.984,992.676,0
1614035079.380,-561.035,-924.805,-360.840,997.070,0
1614035079.384,-946.289,668.457,-636.719,-467.285,0
1614035079.388,613.281,608.887,-698.242,-1000.000,0
1614035079.392,-967.285,-943.848,-525.879,382.324,0
1614035079.396,-1000.000,-1000.000,-327.637,-775.879,0
1614035079.400,409.668,-2.930,-543.457,74.707,0
1614035079.404,-847.168,-923.828,-691.895,-1000.000,0
1614035079.408,-229.492,-300.781,-589.844,-159.668,0
1614035079.411,-1000.000,-1000.000,-361.816,-778.320,0
1614035079.415,-158.691,-211.914,-570.312,217.285,1
1614035079.419,-807.129,-841.309,-683.594,-1000.000,1
1614035079.423,225.098,212.891,-659.180,-273.926,1
1614035079.427,-1000.000,-1000.000,-457.520,-829.590,1
1614035079.431,-262.695,-538.086,-479.004,617.188,1
1614035079.435,-810.547,-927.734,-657.227,-1000.000,1
1614035079.439,258.301,272.461,-662.109,-671.875,1
1614035079.443,-1000.000,-1000.000,-323.730,894.531,1
1614035079.447,-643.066,-1000.000,-300.781,-896.484,1
1614035079.450,967.773,440.430,-652.344,-256.836,1
1614035079.454,778.320,744.629,-679.199,-1000.000,1
1614035079.458,-776.855,-831.543,-532.715,166.992,1
1614035079.462,-1000.000,-1000.000,-388.184,-757.324,1
1614035079.466,217.285,-137.207,-617.676,191.406,0
1614035079.470,-804.199,-870.117,-652.832,-1000.000,0
1614035079.474,-136.719,-138.184,-601.562,-253.418,0
1614035079.478,-1000.000,-1000.000,-428.223,-854.004,0
1614035079.482,-140.625,-141.602,-543.945,230.469,0
1614035079.486,-833.496,-848.633,-615.723,-1000.000,0
1614035079.490,240.234,244.629,-660.156,-351.562,0
1614035079.493,-1000.000,-1000.000,-413.574,-882.812,0
1614035079.497,-369.141,-682.129,-374.023,756.836,0
1614035079.501,-845.215,974.609,-588.379,-855.469,0
1614035079.505,424.805,392.578,-610.840,-830.566,Default
1614035079.509,-1000.000,-1000.000,-532.715,736.816,Default
1614035079.513,-795.410,-1000.000,-430.176,-846.191,Default
1614035079.517,798.828,239.746,-626.953,-149.902,Default
1614035079.521,916.016,895.508,-711.426,-1000.000,Default
1614035079.525,-599.609,-645.020,-569.824,95.215,Default
1614035079.529,-1000.000,-1000.000,-373.535,-813.477,Default
1614035079.532,46.875,-194.824,-591.309,107.422,Default
1614035079.536,-804.199,-866.211,-665.039,-1000.000,Default
1614035079.540,-0.977,17.090,-663.574,-275.879,Default
1614035079.544,-1000.000,-1000.000,-364.258,-808.594,Default
1614035079.548,-237.793,-336.426,-381.348,434.082,Default
1614035079.552,-820.312,-863.281,-670.898,-1000.000,Default
1614035079.556,242.188,248.047,-719.238,-480.957,Default
1614035079.560,-1000.000,-1000.000,-417.480,-953.613,Default
1614035079.564,-472.656,-838.379,-371.582,889.160,Default
1614035079.568,-884.277,790.039,-685.547,-663.574,Default
1614035079.571,528.320,540.039,-686.035,-989.746,Default
1614035079.575,-1000.000,-1000.000,-527.832,616.211,Default
1614035079.579,-700.195,-1000.000,-448.242,-949.219,Default
1614035079.583,756.836,278.320,-600.586,-279.785,Default
1614035079.587,-972.168,998.047,-678.711,-1000.000,Default
1614035079.591,-429.199,-471.680,-492.188,-27.832,Default
1614035079.595,-1000.000,-1000.000,-227.051,-830.078,Default
1614035079.599,-19.043,-117.676,-555.176,117.676,Default
1614035079.603,-820.801,-860.352,-654.297,-1000.000,Default
1614035079.607,131.836,149.414,-643.555,-276.367,Default
1614035079.611,-1000.000,-1000.000,-475.098,-818.848,Default
1614035079.614,-250.000,-465.820,-485.840,528.809,Default
1614035079.618,-815.430,-901.855,-633.789,-1000.000,Default
1614035079.622,241.699,252.930,-663.574,-572.754,Default
1614035079.626,-1000.000,-1000.000,-425.293,959.961,Default
1614035079.630,-561.035,-971.680,-375.488,-959.473,Default
1614035079.634,-945.801,594.727,-608.887,-366.699,Default
1614035079.638,623.535,647.949,-604.980,-1000.000,Default
1614035079.642,-924.316,-922.363,-532.715,261.719,Default
1614035079.646,-1000.000,-1000.000,-409.668,-764.160,Default
1614035079.650,258.789,-49.316,-616.211,186.523,Default
1614035079.653,-841.309,-896.973,-675.781,-1000.000,Default
1614035079.657,-220.703,-227.539,-599.609,-266.602,Default
1614035079.661,-1000.000,-1000.000,-401.367,-795.410,Default
1614035079.665,-220.215,-215.332,-545.410,227.539,Default
1614035079.669,-823.730,-838.867,-643.066,-1000.000,Default
1614035079.673,233.887,234.375,-675.781,-268.555,Default
1614035079.677,-1000.000,-1000.000,-409.180,-841.309,Default
1614035079.681,-266.113,-586.914,-375.000,662.598,Default
1614035079.685,-808.594,-950.195,-648.438,-963.867,Default
1614035079.689,335.449,307.617,-701.172,-741.211,Default
1614035079.693,-1000.000,-1000.000,-482.422,814.453,Default
1614035079.696,-712.891,-1000.000,-303.223,-865.723,Default
1614035079.700,915.039,375.977,-582.031,-164.551,Default
1614035079.704,780.273,787.109,-727.539,-1000.000,Default
1614035079.708,-765.625,-787.109,-523.438,88.379,Default
1614035079.712,-1000.000,-1000.000,-346.191,-757.324,Default
1614035079.716,115.723,-171.875,-625.488,194.824,Default
1614035079.720,-812.988,-875.488,-667.480,-1000.000,Default
1614035079.724,-81.055,-63.965,-607.422,-271.973,Default
1614035079.728,-1000.000,-1000.000,-224.121,-798.828,Default
1614035079.732,-230.957,-267.090,-405.762,333.496,Default
1614035079.735,-822.266,-846.191,-706.055,-1000.000,Default
1614035079.739,240.723,247.070,-674.316,-377.930,Default
1614035079.743,-1000.000,-1000.000,-459.473,-888.672,Default
1614035079.747,-399.902,-729.492,-427.734,762.207,Default
1614035079.751,-858.887,926.758,-666.992,-836.914,Default
1614035079.755,443.848,441.895,-685.059,-878.906,Default
1614035079.759,-1000.000,-1000.000,-520.996,683.594,Default
1614035079.763,-867.188,-1000.000,-434.082,-881.836,Default
1614035079.767,725.586,273.926,-626.465,-138.672,Default
1614035079.771,926.270,928.223,-624.512,-1000.000,Default
1614035079.774,-598.633,-573.730,-466.797,-18.555,Default
1614035079.778,-1000.000,-1000.000,-373.047,-764.648,Default
1614035079.782,-2.441,-199.219,-624.023,203.613,Default
1614035079.786,-797.363,-859.375,-622.559,-1000.000,Default
1614035079.790,95.215,68.848,-624.023,-274.902,Default
1614035079.794,-1000.000,-1000.000,-502.930,-807.129,Default
1614035079.798,-248.535,-386.230,-521.484,434.570,Default
1614035079.802,-815.918,-876.953,-633.301,-1000.000,Default
1614035079.806,241.699,250.488,-693.359,-496.094,Default
1614035079.810,-1000.000,-1000.000,-440.430,-991.211,Default
1614035079.814,-532.715,-884.277,-327.637,969.727,Default
1614035079.817,-923.340,729.492,-596.191,-506.348,Default
1614035079.821,541.504,573.730,-699.219,-1000.000,Default
1614035079.825,-1000.000,-963.867,-531.250,397.461,Default
1614035079.829,-1000.000,-1000.000,-387.207,-778.320,Default
1614035079.833,415.527,39.062,-598.633,74.219,Default
1614035079.837,-875.488,-946.289,-671.387,-1000.000,Default
1614035079.841,-292.969,-355.469,-592.285,-150.879,Default
1614035079.845,-1000.000,-1000.000,-296.875,-776.367,Default
1614035079.849,-117.676,-210.449,-487.305,215.820,Default
1614035079.853,-798.828,-843.750,-682.129,-1000.000,Default
1614035079.856,219.727,195.312,-659.180,-274.414,Default
1614035079.860,-1000.000,-1000.000,-364.746,-827.637,Default
1614035079.864,-262.695,-506.836,-398.438,600.098,Default
1614035079.868,-811.035,-914.551,-647.461,-1000.000,Default
1614035079.872,239.258,252.930,-724.121,-668.457,Default
1614035079.876,-1000.000,-1000.000,-313.477,892.578,Default
1614035079.880,-646.973,-1000.000,-134.766,-895.020,Default
1614035079.884,990.723,503.906,-658.691,-261.230,Default
1614035079.888,672.363,698.242,-699.219,-1000.000,Default
1614035079.892,-892.578,-876.465,-497.559,187.988,Default
1614035079.895,-1000.000,-1000.000,-384.766,-755.859,Default
1614035079.899,215.820,-106.934,-648.926,187.988,Default
1614035079.903,-812.012,-884.277,-658.203,-1000.000,Default
1614035079.907,-118.652,-159.668,-548.340,-270.508,Default
1614035079.911,-1000.000,-1000.000,-411.133,-799.316,Default
1614035079.915,-228.516,-218.262,-597.168,299.316,Default
1614035079.919,-820.312,-835.449,-626.953,-1000.000,Default
1614035079.923,236.816,245.605,-609.375,-368.164,Default
1614035079.927,-1000.000,-1000.000,-484.863,-888.672,Default
1614035079.931,-321.289,-625.488,-446.777,760.742,Default
1614035079.935,-828.125,-974.121,-638.184,-857.422,Default
1614035079.938,377.441,356.445,-695.801,-830.078,Default
1614035079.942,-1000.000,-1000.000,-495.605,736.328,Default
1614035079.946,-789.551,-1000.000,-382.812,-846.191,Default
1614035079.950,794.434,289.551,-611.816,-151.367,Default
1614035079.954,921.387,846.680,-665.527,-1000.000,Default
1614035079.958,-606.934,-694.336,-524.414,77.637,Default
1614035079.962,-1000.000,-1000.000,-352.051,-757.324,Default
1614035079.966,109.863,-187.012,-587.891,195.801,Default
1614035079.970,-795.898,-868.164,-657.227,-1000.000,Default
1614035079.974,-7.812,-12.207,-642.578,-275.879,Default
1614035079.977,-1000.000,-1000.000,-421.387,-805.176,Default
1614035079.981,-238.770,-297.852,-410.645,428.223,Default
1614035079.985,-820.312,-851.562,-564.453,-1000.000,Default
1614035079.989,242.676,246.094,-707.031,-468.750,Default
1614035079.993,-1000.000,-1000.000,-430.664,-949.219,Default
1614035079.997,-467.773,-791.992,-353.027,887.207,Default
1614035080.001,-890.625,852.051,-642.578,-668.945,Default
1614035080.005,513.184,491.211,-688.965,-969.727,Default
1614035080.009,-1000.000,-1000.000,-428.711,565.430,Default
1614035080.013,-920.898,-1000.000,-209.473,-806.152,Default
1614035080.017,607.910,135.254,-612.305,-39.062,Default
1614035080.020,-952.637,990.234,-727.539,-1000.000,Default
1614035080.024,-425.293,-488.281,-548.828,-35.156,Default
1614035080.028,-1000.000,-1000.000,-405.762,-763.672,Default
1614035080.032,-3.418,-202.637,-624.023,205.078,Default
1614035080.036,-791.016,-852.051,-653.809,-1000.000,Default
1614035080.040,105.469,113.281,-641.113,-276.367,Default
1614035080.044,-1000.000,-1000.000,-473.633,-815.430,Default
1614035080.048,-250.000,-426.758,-484.863,518.066,Default
1614035080.052,-816.406,-889.160,-643.555,-1000.000,Default
1614035080.056,242.188,250.488,-638.184,-565.430,Default
1614035080.059,-1000.000,-1000.000,-352.539,979.004,Default
1614035080.063,-561.035,-938.477,-383.301,-997.070,Default
1614035080.067,-949.219,646.484,-669.434,-469.727,Default
1614035080.071,635.254,622.559,-678.223,-1000.000,Default
1614035080.075,-953.125,-936.035,-539.551,382.812,Default
1614035080.079,-1000.000,-1000.000,-433.105,-778.809,Default
1614035080.083,411.133,-20.508,-626.953,78.613,Default
1614035080.087,-848.633,-910.156,-660.156,-1000.000,Default
1614035080.091,-228.027,-270.996,-589.844,-207.520,Default
1614035080.095,-1000.000,-1000.000,-386.230,-791.016,Default
1614035080.098,-176.758,-212.891,-518.555,224.121,Default
1614035080.102,-812.012,-840.332,-583.984,-1000.000,Default
1614035080.106,228.027,218.750,-684.570,-272.949,Default
1614035080.110,-1000.000,-1000.000,-484.863,-829.590,Default
1614035080.114,-267.578,-548.828,-440.430,617.188,Default
1614035080.118,-809.082,-932.129,-654.297,-1000.000,Default
1614035080.122,338.867,289.062,-711.426,-671.387,Default
1614035080.126,-1000.000,-1000.000,-449.707,894.043,Default
1614035080.130,-656.250,-1000.000,-307.129,-896.973,Default
1614035080.134,974.609,423.340,-618.164,-247.559,Default
1614035080.138,773.926,760.254,-694.824,-1000.000,Default
1614035080.141,-772.461,-816.406,-527.344,143.555,Default
1614035080.145,-1000.000,-1000.000,-264.648,-758.301,Default
1614035080.149,190.918,-147.461,-502.930,191.406,Default
1614035080.153,-812.988,-878.418,-692.383,-1000.000,Default
1614035080.157,-116.211,-109.863,-617.188,-272.461,Default
1614035080.161,-1000.000,-1000.000,-342.773,-798.340,Default
1614035080.165,-228.027,-237.305,-490.234,333.496,Default
1614035080.169,-822.754,-839.355,-672.852,-1000.000,Default
1614035080.173,239.746,245.605,-655.273,-378.418,Default
1614035080.177,-1000.000,-1000.000,-427.734,-886.719,Default
1614035080.180,-369.629,-681.152,-426.270,756.348,Default
1614035080.184,-846.191,974.121,-647.949,-845.215,Default
1614035080.188,442.383,403.809,-666.504,-875.000,Default
1614035080.192,-1000.000,-1000.000,-330.078,663.086,Default
1614035080.196,-798.828,-1000.000,-268.066,-827.637,Default
1614035080.200,800.293,233.887,-662.598,-71.777,Default
1614035080.204,915.527,901.367,-679.199,-1000.000,Default
1614035080.208,-600.098,-636.230,-535.645,-4.883,Default
1614035080.212,-1000.000,-1000.000,-395.020,-762.207,Default
1614035080.216,50.293,-196.289,-618.164,202.637,Default
1614035080.219,-801.270,-864.258,-646.973,-1000.000,Default
1614035080.223,15.137,33.691,-650.391,-276.855,Default
1614035080.227,-1000.000,-1000.000,-480.469,-798.828,Default
1614035080.231,-221.191,-328.613,-510.254,415.527,Default
1614035080.235,-875.488,-922.852,-631.836,-1000.000,Default
1614035080.239,153.809,160.645,-662.598,-388.184,Default
1614035080.243,-1000.000,-1000.000,-410.156,-976.074,Default
1614035080.247,-468.262,-845.215,-390.625,926.270,Default
1614035080.251,-893.066,782.715,-601.074,-593.750,Default
1614035080.255,533.203,538.086,-603.516,-1000.000,Default
1614035080.259,-1000.000,-983.887,-555.664,500.488,Default
1614035080.262,-1000.000,-1000.000,-448.242,-792.969,Default
1614035080.266,494.629,92.773,-630.371,58.105,Default
1614035080.270,-946.777,-983.887,-693.359,-1000.000,Default
1614035080.274,-415.039,-438.965,-584.473,-138.672,Default
1614035080.278,-1000.000,-1000.000,-383.301,-774.902,Default
1614035080.282,-112.305,-206.543,-562.012,214.844,Default
1614035080.286,-805.664,-848.145,-635.254,-1000.000,Default
1614035080.290,187.988,161.133,-678.711,-274.902,Default
1614035080.294,-1000.000,-1000.000,-408.691,-816.895,Default
1614035080.298,-258.301,-472.656,-366.699,529.297,Default
1614035080.301,-811.523,-903.809,-642.578,-1000.000,Default
1614035080.305,240.234,252.930,-705.078,-582.031,Default
1614035080.309,-1000.000,-1000.000,-375.000,951.660,Default
1614035080.313,-577.148,-978.516,-293.457,-949.707,Default
1614035080.317,-955.566,583.496,-668.457,-372.559,Default
1614035080.321,624.512,652.344,-683.105,-1000.000,Default
1614035080.325,-920.410,-918.457,-517.090,317.871,Default
1614035080.329,-1000.000,-1000.000,-371.094,-766.113,Default
1614035080.333,228.516,-66.406,-604.004,183.105,Default
1614035080.337,-838.379,-894.531,-681.641,-1000.000,Default
1614035080.341,-217.285,-210.938,-528.809,-245.605,Default
1614035080.344,-1000.000,-1000.000,-244.629,-789.551,Default
1614035080.348,-220.703,-215.820,-519.531,224.609,Default
1614035080.352,-823.730,-837.891,-664.551,-1000.000,Default
1614035080.356,233.887,238.281,-663.086,-272.461,Default
1614035080.360,-1000.000,-1000.000,-436.035,-830.078,Default
1614035080.364,-266.113,-591.797,-406.250,616.699,Default
1614035080.368,-808.594,-952.148,-649.414,-1000.000,Default
1614035080.372,332.520,312.988,-652.344,-678.711,Default
1614035080.376,-1000.000,-1000.000,-414.551,876.953,Default
1614035080.380,-752.441,-1000.000,-360.840,-880.859,Default
1614035080.383,872.070,357.422,-607.910,-183.594,Default
1614035080.387,788.086,800.781,-626.465,-1000.000,Default
1614035080.391,-768.555,-769.043,-557.129,104.004,Default
1614035080.395,-1000.000,-1000.000,-400.879,-757.324,Default
1614035080.399,108.398,-174.316,-625.977,193.848,Default
1614035080.403,-801.758,-872.559,-680.664,-1000.000,Default
1614035080.407,-23.438,-50.781,-633.789,-273.926,Default
1614035080.411,-1000.000,-1000.000,-464.355,-794.922,Default
1614035080.415,-236.816,-267.090,-537.598,318.359,Default
1614035080.419,-816.895,-844.727,-629.883,-1000.000,Default
1614035080.422,238.770,248.047,-671.875,-358.398,Default
1614035080.426,-1000.000,-1000.000,-437.988,-948.730,Default
1614035080.430,-370.605,-701.172,-333.984,836.914,Default
1614035080.434,-848.145,953.125,-546.875,-732.910,Default
1614035080.438,479.492,458.984,-674.805,-959.961,Default
1614035080.442,-1000.000,-1000.000,-528.809,564.453,Default
1614035080.446,-837.891,-1000.000,-400.879,-807.129,Default
1614035080.450,722.656,192.871,-643.555,-39.551,Default
1614035080.454,-992.188,953.125,-711.914,-1000.000,Default
1614035080.458,-460.449,-554.199,-543.457,-35.156,Default
1614035080.462,-1000.000,-1000.000,-371.582,-763.672,Default
1614035080.465,-3.906,-200.195,-628.906,205.078,Default
1614035080.469,-791.992,-856.445,-650.879,-1000.000,Default
1614035080.473,105.957,78.613,-624.023,-275.879,Default
1614035080.477,-1000.000,-1000.000,-247.070,-813.965,Default
1614035080.481,-250.000,-379.395,-369.141,496.094,Default
1614035080.485,-812.988,-873.535,-696.289,-1000.000,Default
1614035080.489,240.234,250.000,-675.293,-572.754,Default
1614035080.493,-1000.000,-1000.000,-431.641,971.191,Default
1614035080.497,-468.262,-875.977,-395.508,-994.629,Default
1614035080.501,-896.973,739.746,-650.879,-470.703,Default
1614035080.504,584.473,586.426,-662.598,-1000.000,Default
1614035080.508,-972.656,-957.031,-529.297,382.812,Default
1614035080.512,-1000.000,-1000.000,-404.785,-775.879,Default
1614035080.516,433.594,41.504,-622.070,74.707,Default
1614035080.520,-847.168,-931.152,-615.234,-1000.000,Default
1614035080.524,-232.910,-330.078,-489.258,-158.691,Default
1614035080.528,-1000.000,-1000.000,-441.895,-778.320,Default
1614035080.532,-119.141,-211.426,-604.492,216.797,Default
1614035080.536,-796.875,-841.797,-603.516,-1000.000,Default
1614035080.540,219.727,203.613,-660.645,-274.414,Default
1614035080.543,-1000.000,-1000.000,-474.609,-828.613,Default
1614035080.547,-264.160,-501.953,-447.266,608.887,Default
1614035080.551,-803.223,-910.645,-620.605,-1000.000,Default
1614035080.555,221.191,259.277,-682.617,-670.410,Default
1614035080.559,-1000.000,-1000.000,-478.516,893.066,Default
1614035080.563,-519.531,-1000.000,-344.238,-895.020,Default
1614035080.567,976.074,507.812,-580.566,-261.230,Default
1614035080.571,771.973,721.680,-695.312,-1000.000,Default
1614035080.575,-771.973,-854.004,-550.781,187.988,Default
1614035080.579,-1000.000,-1000.000,-383.789,-755.859,Default
1614035080.583,220.703,-95.703,-616.211,187.988,Default
1614035080.586,-811.035,-876.953,-678.711,-1000.000,Default
1614035080.590,-118.652,-146.484,-620.117,-270.508,Default
1614035080.594,-1000.000,-1000.000,-353.516,-799.316,Default
1614035080.598,-232.910,-220.703,-484.863,297.363,Default
1614035080.602,-805.664,-828.613,-676.758,-1000.000,Default
1614035080.606,199.707,229.004,-671.387,-359.375,Default
1614035080.610,-1000.000,-1000.000,-332.031,-920.410,Default
1614035080.614,-134.766,-554.688,-328.125,612.305,Default
1614035080.618,-844.727,-990.723,-636.230,-938.477,Default
1614035080.622,385.254,358.398,-719.727,-816.895,Default
1614035080.625,-1000.000,-1000.000,-356.934,732.910,Default
1614035080.629,-791.504,-1000.000,-206.543,-848.633,Default
1614035080.633,794.922,290.039,-667.480,-151.367,Default
1614035080.637,921.387,863.770,-704.102,-1000.000,Default
1614035080.641,-606.934,-687.500,-534.180,78.125,Default
1614035080.645,-1000.000,-1000.000,-394.531,-756.836,Default
1614035080.649,109.863,-185.059,-643.066,195.801,Default
1614035080.653,-795.898,-866.699,-648.926,-1000.000,Default
1614035080.657,-7.324,-6.836,-590.820,-274.902,Default
1614035080.661,-1000.000,-1000.000,-416.016,-804.688,Default
1614035080.665,-238.770,-302.734,-520.020,406.738,Default
1614035080.668,-820.312,-853.027,-615.234,-1000.000,Default
1614035080.672,241.699,247.070,-614.746,-465.820,Default
1614035080.676,-1000.000,-1000.000,-465.820,-951.172,Default
1614035080.680,-458.984,-787.109,-409.668,888.184,Default
1614035080.684,-888.672,856.934,-646.484,-668.945,Default
1614035080.688,540.039,500.977,-686.523,-969.727,Default
1614035080.692,-1000.000,-1000.000,-501.953,565.430,Default
1614035080.696,-926.758,-1000.000,-400.879,-807.129,Default
1614035080.700,610.352,136.230,-616.699,-38.574,Default
1614035080.704,-953.125,-998.047,-664.551,-1000.000,Default
1614035080.707,-425.293,-471.680,-526.367,-45.898,Default
1614035080.711,-1000.000,-1000.000,-363.770,-765.625,Default
1614035080.715,-3.906,-203.125,-542.480,206.543,Default
1614035080.719,-791.016,-852.051,-567.383,-1000.000,Default
1614035080.723,105.469,118.652,-663.086,-275.879,Default
1614035080.727,-1000.000,-1000.000,-476.074,-815.918,Default
1614035080.731,-250.000,-428.711,-472.656,521.484,Default
1614035080.735,-816.406,-889.160,-663.574,-1000.000,Default
1614035080.739,242.188,251.465,-717.285,-578.125,Default
1614035080.743,-1000.000,-1000.000,-425.293,973.145,Default
1614035080.746,-561.035,-933.105,-337.891,-995.117,Default
1614035080.750,-949.219,652.832,-636.230,-470.703,Default
1614035080.754,635.254,629.395,-686.523,-1000.000,Default
1614035080.758,-953.125,-934.082,-479.004,382.324,Default
1614035080.762,-1000.000,-1000.000,-286.621,-779.785,Default
1614035080.766,411.133,-4.883,-628.418,90.332,Default
1614035080.770,-845.215,-903.320,-696.289,-1000.000,Default
1614035080.774,-232.422,-264.160,-538.574,-239.746,Default
1614035080.778,-1000.000,-1000.000,-374.023,-798.828,Default
1614035080.782,-124.512,-213.379,-604.492,228.027,Default
1614035080.786,-798.340,-839.844,-659.180,-1000.000,Default
1614035080.789,220.215,222.168,-667.480,-271.973,Default
1614035080.793,-1000.000,-1000.000,-469.727,-829.590,Default
1614035080.797,-268.555,-554.688,-440.430,617.188,Default
1614035080.801,-809.082,-935.059,-654.785,-1000.000,Default
1614035080.805,338.867,287.598,-642.090,-671.387,Default
1614035080.809,-1000.000,-1000.000,-379.883,894.531,Default
1614035080.813,-656.250,-1000.000,-399.414,-897.461,Default
1614035080.817,974.609,422.852,-664.551,-243.652,Default
1614035080.821,774.902,763.184,-691.895,-1000.000,Default
1614035080.825,-774.902,-813.477,-569.336,125.488,Default
1614035080.828,-1000.000,-1000.000,-400.879,-759.766,Default
1614035080.832,207.520,-143.066,-594.727,192.871,Default
1614035080.836,-812.012,-877.930,-649.414,-1000.000,Default
1614035080.840,-117.676,-110.840,-625.488,-271.973,Default
1614035080.844,-1000.000,-1000.000,-407.715,-798.340,Default
1614035080.848,-228.516,-240.234,-471.680,333.496,Default
1614035080.852,-822.754,-840.820,-584.473,-1000.000,Default
1614035080.856,239.746,245.605,-691.406,-378.418,Default
1614035080.860,-1000.000,-1000.000,-464.844,-887.207,Default
1614035080.864,-369.629,-690.430,-397.949,757.324,Default
1614035080.867,-845.703,965.820,-644.531,-848.633,Default
1614035080.871,442.871,403.320,-692.871,-862.305,Default
1614035080.875,-1000.000,-1000.000,-500.977,681.152,Default
1614035080.879,-798.828,-1000.000,-396.973,-831.543,Default
1614035080.883,800.293,233.398,-625.977,-77.148,Default
1614035080.887,915.039,902.344,-674.316,-1000.000,Default
1614035080.891,-598.633,-635.254,-552.734,-3.906,Default
1614035080.895,-1000.000,-1000.000,-246.094,-762.695,Default
1614035080.899,40.039,-195.801,-424.805,202.637,Default
1614035080.903,-805.176,-864.746,-647.949,-1000.000,Default
1614035080.907,0.000,29.297,-650.879,-274.902,Default
1614035080.910,-1000.000,-1000.000,-453.613,-806.152,Default
1614035080.914,-237.793,-347.168,-524.414,434.082,Default
1614035080.918,-820.312,-866.211,-653.320,-1000.000,Default
1614035080.922,242.188,249.023,-683.105,-476.074,Default
1614035080.926,-1000.000,-1000.000,-449.707,-965.820,Default
1614035080.930,-468.262,-842.285,-405.273,927.246,Default
1614035080.934,-891.602,788.086,-660.645,-586.426,Default
1614035080.938,537.109,538.574,-653.809,-1000.000,Default
1614035080.942,-1000.000,-983.398,-422.363,475.098,Default
1614035080.946,-966.309,-1000.000,-355.469,-790.039,Default
1614035080.949,550.293,94.238,-659.668,60.059,Default
1614035080.953,-953.125,-982.422,-654.785,-1000.000,Default
1614035080.957,-415.039,-436.523,-504.395,-142.578,Default
1614035080.961,-1000.000,-1000.000,-423.828,-775.879,Default
1614035080.965,-111.816,-206.543,-626.465,214.844,Default
1614035080.969,-805.664,-848.145,-648.926,-1000.000,Default
1614035080.973,187.988,159.668,-670.898,-274.902,Default
1614035080.977,-1000.000,-1000.000,-493.652,-817.871,Default
1614035080.981,-257.812,-470.215,-481.934,528.809,Default
1614035080.985,-811.035,-903.320,-620.605,-1000.000,Default
1614035080.988,240.723,254.883,-667.480,-623.047,Default
1614035080.992,-1000.000,-1000.000,-434.082,945.801,Default
1614035080.996,-560.059,-951.660,-375.000,-990.723,Default
1614035081.000,-950.195,616.699,-575.195,-431.641,Default
1614035081.004,641.602,669.922,-600.098,-1000.000,Default
1614035081.008,-918.457,-897.949,-568.848,221.191,Default
1614035081.012,-1000.000,-1000.000,-425.293,-764.648,Default
1614035081.016,299.805,-59.082,-615.234,167.480,Default
1614035081.020,-832.031,-893.555,-692.871,-1000.000,Default
1614035081.024,-176.758,-210.938,-618.164,-260.254,Default
1614035081.028,-1000.000,-1000.000,-406.250,-795.898,Default
1614035081.031,-224.121,-215.820,-529.785,228.027,Default
1614035081.035,-820.801,-837.402,-637.695,-1000.000,Default
1614035081.039,233.887,237.793,-700.195,-271.973,Default
1614035081.043,-1000.000,-1000.000,-395.020,-829.590,Default
1614035081.047,-266.113,-580.566,-324.219,611.816,Default
1614035081.051,-809.082,-945.312,-655.273,-1000.000,Default
1614035081.055,338.379,315.430,-727.539,-744.141,Default
1614035081.059,-1000.000,-1000.000,-378.906,803.223,Default
1614035081.063,-670.898,-1000.000,-240.723,-869.141,Default
1614035081.067,958.984,362.793,-659.668,-187.500,Default
1614035081.070,778.320,809.570,-698.242,-1000.000,Default
1614035081.074,-783.691,-786.621,-500.977,114.258,Default
1614035081.078,-1000.000,-1000.000,-344.238,-814.453,Default
1614035081.082,194.824,-82.031,-586.914,106.445,Default
1614035081.086,-809.570,-881.836,-657.715,-1000.000,Default
1614035081.090,-7.324,-48.340,-560.547,-272.461,Default
1614035081.094,-1000.000,-1000.000,-285.645,-803.223,Default
1614035081.098,-238.770,-267.090,-501.953,335.938,Default
1614035081.102,-815.918,-844.238,-667.480,-1000.000,Default
1614035081.106,238.281,247.070,-673.828,-429.688,Default
1614035081.110,-1000.000,-1000.000,-460.449,-937.012,Default
1614035081.113,-369.629,-723.145,-418.457,854.492,Default
1614035081.117,-845.215,932.617,-641.113,-734.375,Default
1614035081.121,437.012,450.684,-641.602,-906.738,Default
1614035081.125,-1000.000,-1000.000,-474.609,652.344,Default
1614035081.129,-854.004,-1000.000,-401.367,-817.871,Default
1614035081.133,705.566,192.871,-600.098,-39.062,Default
1614035081.137,974.609,943.359,-595.703,-1000.000,Default
1614035081.141,-519.531,-568.359,-545.898,-35.156,Default
1614035081.145,-1000.000,-1000.000,-417.969,-763.672,Default
1614035081.149,-3.906,-200.195,-619.629,205.078,Default
1614035081.152,-793.945,-857.422,-655.273,-1000.000,Default
1614035081.156,105.469,76.172,-653.320,-275.879,Default
1614035081.160,-1000.000,-1000.000,-487.305,-813.965,Default
1614035081.164,-250.000,-376.953,-506.836,492.676,Default
1614035081.168,-812.988,-873.047,-644.531,-1000.000,Default
1614035081.172,240.234,250.488,-678.223,-572.266,Default
1614035081.176,-1000.000,-1000.000,-415.527,970.703,Default
1614035081.180,-468.262,-864.746,-304.199,-994.629,Default
1614035081.184,-893.555,754.883,-533.691,-470.215,Default
1614035081.188,561.035,577.637,-661.621,-1000.000,Default
1614035081.191,-980.469,-958.496,-538.574,382.324,Default
1614035081.195,-1000.000,-1000.000,-385.254,-775.391,Default
1614035081.199,412.598,37.109,-631.836,74.219,Default
1614035081.203,-861.328,-948.242,-698.730,-1000.000,Default
1614035081.207,-265.137,-357.422,-566.406,-150.879,Default
1614035081.211,-1000.000,-1000.000,-387.207,-775.879,Default
1614035081.215,-118.164,-210.938,-598.145,215.820,Default
1614035081.219,-797.852,-842.285,-643.066,-1000.000,Default
1614035081.223,219.727,204.102,-630.859,-274.414,Default
1614035081.227,-1000.000,-1000.000,-340.820,-827.637,Default
1614035081.231,-263.672,-497.070,-400.879,599.609,Default
1614035081.234,-809.570,-908.203,-664.062,-1000.000,Default
1614035081.238,254.883,260.742,-639.648,-668.457,Default
1614035081.242,-1000.000,-1000.000,-422.363,892.578,Default
1614035081.246,-615.723,-1000.000,-411.133,-895.020,Default
1614035081.250,994.629,512.207,-658.203,-261.230,Default
1614035081.254,736.328,708.008,-683.105,-1000.000,Default
1614035081.258,-813.477,-866.699,-543.945,187.988,Default
1614035081.262,-1000.000,-1000.000,-395.996,-755.859,Default
1614035081.266,219.238,-102.539,-619.141,187.988,Default
1614035081.270,-811.523,-879.395,-602.051,-1000.000,Default
1614035081.273,-118.652,-149.902,-522.461,-267.578,Default
1614035081.277,-1000.000,-1000.000,-455.566,-797.363,Default
1614035081.281,-228.516,-218.750,-581.055,249.023,Default
1614035081.285,-819.824,-834.961,-639.648,-1000.000,Default
1614035081.289,236.328,245.605,-684.570,-320.312,Default
1614035081.293,-1000.000,-1000.000,-463.379,-872.559,Default
1614035081.297,-312.988,-630.371,-405.273,731.445,Default
1614035081.301,-825.684,-978.516,-627.441,-880.371,Default
1614035081.305,392.090,360.352,-689.941,-826.172,Default
1614035081.309,-1000.000,-1000.000,-508.301,735.352,Default
1614035081.312,-792.969,-1000.000,-362.793,-846.191,Default
1614035081.316,795.410,297.363,-593.750,-151.367,Default
1614035081.320,921.387,868.164,-714.355,-1000.000,Default
1614035081.324,-606.934,-682.129,-564.453,77.637,Default
1614035081.328,-1000.000,-1000.000,-363.770,-757.324,Default
1614035081.332,109.863,-182.129,-589.355,195.801,Default
1614035081.336,-795.898,-866.699,-681.152,-1000.000,Default
1614035081.340,-7.324,-11.719,-654.297,-275.391,Default
1614035081.344,-1000.000,-1000.000,-400.391,-805.664,Default
1614035081.348,-240.234,-298.828,-475.098,419.434,Default
1614035081.352,-812.012,-850.098,-643.555,-1000.000,Default
1614035081.355,222.656,243.164,-691.895,-478.516,Default
1614035081.359,-1000.000,-1000.000,-329.590,-954.590,Default
1614035081.363,-353.516,-757.812,-207.520,889.648,Default
1614035081.367,-890.625,865.723,-654.297,-669.922,Default
1614035081.371,518.066,488.770,-723.633,-969.238,Default
1614035081.375,-1000.000,-1000.000,-417.969,565.918,Default
1614035081.379,-923.340,-1000.000,-320.801,-810.059,Default
1614035081.383,608.398,139.160,-670.898,-33.691,Default
1614035081.387,-952.637,988.281,-700.195,-1000.000,Default
1614035081.391,-425.293,-491.699,-546.387,-91.797,Default
1614035081.394,-1000.000,-1000.000,-386.719,-774.414,Default
1614035081.398,-3.906,-203.125,-620.605,212.402,Default
1614035081.402,-791.016,-852.051,-639.160,-1000.000,Default
1614035081.406,105.957,113.281,-624.512,-275.391,Default
1614035081.410,-1000.000,-1000.000,-447.754,-816.406,Default
1614035081.414,-250.000,-414.551,-475.586,529.297,Default
1614035081.418,-816.406,-883.301,-589.844,-1000.000,Default
1614035081.422,242.188,249.512,-587.402,-579.590,Default
1614035081.426,-1000.000,-1000.000,-456.055,974.121,Default
1614035081.430,-561.035,-926.758,-406.250,-997.070,Default
1614035081.434,-949.219,663.086,-641.113,-467.285,Default
1614035081.437,635.254,620.605,-698.730,-1000.000,Default
1614035081.441,-951.660,-936.523,-539.062,356.445,Default
1614035081.445,-1000.000,-1000.000,-399.414,-768.555,Default
1614035081.449,429.199,14.160,-611.816,113.770,Default
1614035081.453,-901.367,-962.402,-652.832,-1000.000,Default
1614035081.457,-320.801,-358.398,-549.316,-152.344,Default
1614035081.461,-1000.000,-1000.000,-370.605,-805.176,Default
1614035081.465,-119.141,-213.379,-493.652,226.562,Default
1614035081.469,-799.316,-842.773,-561.035,-1000.000,Default
1614035081.473,219.727,218.750,-672.363,-272.461,Default
1614035081.476,-1000.000,-1000.000,-462.402,-830.078,Default
1614035081.480,-268.555,-548.340,-425.293,617.188,Default
1614035081.484,-809.082,-934.082,-657.715,-1000.000,Default
1614035081.488,338.867,292.969,-717.285,-679.199,Default
1614035081.492,-1000.000,-1000.000,-445.801,912.598,Default
1614035081.496,-656.250,-1000.000,-334.473,-951.660,Default
1614035081.500,974.121,517.090,-620.117,-349.609,Default
1614035081.504,775.879,751.465,-704.590,-1000.000,Default
1614035081.508,-776.855,-814.453,-509.277,187.500,Default
1614035081.512,-1000.000,-1000.000,-280.273,-758.301,Default
1614035081.515,220.703,-138.672,-634.277,187.988,Default
1614035081.519,-811.035,-874.023,-702.148,-1000.000,Default
1614035081.523,-118.652,-101.562,-619.141,-271.973,Default
1614035081.527,-1000.000,-1000.000,-455.566,-798.828,Default
1614035081.531,-238.281,-246.094,-556.641,327.148,Default
1614035081.535,-792.480,-811.035,-667.969,-1000.000,Default
1614035081.539,169.434,184.570,-645.020,-331.543,Default
1614035081.543,-1000.000,-1000.000,-458.496,-994.141,Default
1614035081.547,7.324,-314.941,-478.027,415.527,Default
1614035081.551,-865.234,990.234,-638.672,-937.500,Default
1614035081.555,430.664,383.301,-629.395,-806.152,Default
1614035081.558,-1000.000,-1000.000,-377.930,724.121,Default
1614035081.562,-798.828,-1000.000,-366.699,-850.098,Default
1614035081.566,800.293,235.352,-657.227,-143.555,Default
1614035081.570,915.039,898.926,-694.336,-1000.000,Default
1614035081.574,-599.121,-639.648,-552.734,39.062,Default
1614035081.578,-1000.000,-1000.000,-395.996,-761.719,Default
1614035081.582,43.457,-195.801,-614.746,199.707,Default
1614035081.586,-804.688,-864.746,-634.766,-1000.000,Default
1614035081.590,0.488,27.344,-610.352,-275.391,Default
1614035081.594,-1000.000,-1000.000,-399.414,-806.152,Default
1614035081.597,-237.793,-341.309,-441.895,434.082,Default
1614035081.601,-819.824,-864.746,-551.758,-1000.000,Default
1614035081.605,242.188,248.535,-650.879,-479.980,Default
1614035081.609,-1000.000,-1000.000,-481.934,-956.055,Default
1614035081.613,-468.262,-841.309,-395.996,895.020,Default
1614035081.617,-891.113,790.039,-636.230,-643.555,Default
1614035081.621,535.156,535.156,-697.754,-1000.000,Default
1614035081.625,-1000.000,-983.398,-530.273,498.047,Default
1614035081.629,-988.281,-1000.000,-395.020,-787.109,Default
1614035081.633,545.410,113.281,-626.465,39.062,Default
1614035081.636,994.629,958.984,-679.199,-1000.000,Default
1614035081.640,-505.371,-528.320,-551.758,-54.199,Default
1614035081.644,-1000.000,-1000.000,-238.281,-787.109,Default
1614035081.648,-94.238,-206.543,-435.059,215.332,Default
1614035081.652,-804.199,-850.586,-657.227,-1000.000,Default
1614035081.656,187.988,157.715,-687.012,-274.902,Default
1614035081.660,-1000.000,-1000.000,-337.891,-816.895,Default
1614035081.664,-258.789,-466.309,-350.586,529.297,Default
1614035081.668,-811.035,-900.879,-682.129,-1000.000,Default
1614035081.672,240.234,251.465,-688.965,-578.125,Default
1614035081.676,-1000.000,-1000.000,-448.730,969.727,Default
1614035081.679,-567.871,-978.027,-385.742,-984.863,Default
1614035081.683,-950.195,584.961,-660.156,-444.336,Default
1614035081.687,624.512,651.367,-655.273,-1000.000,Default
1614035081.691,-924.316,-919.922,-481.445,354.004,Default
1614035081.695,-1000.000,-1000.000,-419.922,-773.438,Default
1614035081.699,250.977,-57.617,-653.809,160.645,Default
1614035081.703,-836.426,-895.020,-667.969,-1000.000,Default
1614035081.707,-203.125,-217.285,-574.707,-258.789,Default
1614035081.711,-1000.000,-1000.000,-439.941,-795.898,Default
1614035081.715,-221.680,-215.332,-603.516,228.027,Default
1614035081.718,-822.754,-837.402,-612.305,-1000.000,Default
1614035081.722,233.887,236.328,-627.441,-271.973,Default
1614035081.726,-1000.000,-1000.000,-486.816,-829.590,Default
1614035081.730,-266.113,-580.078,-447.266,612.793,Default
1614035081.734,-808.594,-945.801,-632.812,-1000.000,Default
1614035081.738,338.867,314.941,-697.754,-733.887,Default
1614035081.742,-1000.000,-1000.000,-446.777,816.406,Default
1614035081.746,-663.086,-1000.000,-373.535,-873.047,Default
1614035081.750,969.727,371.094,-588.867,-200.195,Default
1614035081.754,769.531,793.945,-619.629,-1000.000,Default
1614035081.758,-763.672,-777.832,-556.152,109.375,Default
1614035081.761,-1000.000,-1000.000,-373.535,-757.812,Default
1614035081.765,109.375,-173.828,-603.027,195.312,Default
1614035081.769,-798.340,-867.676,-673.340,-1000.000,Default
1614035081.773,-61.523,-79.102,-643.066,-253.418,Default
1614035081.777,-1000.000,-1000.000,-415.039,-854.492,Default
1614035081.781,-146.484,-179.199,-473.145,245.605,Default
1614035081.785,-829.102,-856.934,-639.160,-1000.000,Default
1614035081.789,239.258,247.559,-714.844,-376.465,Default
1614035081.793,-1000.000,-1000.000,-372.070,-895.996,Default
1614035081.797,-369.629,-725.586,-275.391,778.320,Default
1614035081.800,-844.238,931.152,-664.551,-805.664,Default
1614035081.804,433.594,434.570,-717.773,-905.762,Default
1614035081.808,-1000.000,-1000.000,-445.801,626.465,Default
1614035081.812,-891.113,-1000.000,-337.891,-819.824,Default
1614035081.816,658.203,189.453,-646.484,-47.852,Default
1614035081.820,979.492,943.359,-688.477,-1000.000,Default
1614035081.824,-523.926,-568.848,-501.953,-34.668,Default
1614035081.828,-1000.000,-1000.000,-332.031,-764.648,Default
1614035081.832,-3.418,-199.707,-597.168,205.078,Default
1614035081.836,-793.457,-858.398,-655.273,-1000.000,Default
1614035081.839,105.957,71.777,-604.980,-275.391,Default
1614035081.843,-1000.000,-1000.000,-329.590,-811.523,Default
1614035081.847,-250.000,-382.812,-467.285,475.098,Default
1614035081.851,-813.965,-875.488,-668.945,-1000.000,Default
1614035081.855,241.211,250.488,-673.828,-540.527,Default
1614035081.859,-1000.000,-1000.000,-463.867,983.887,Default
1614035081.863,-505.371,-879.883,-411.621,-999.512,Default
1614035081.867,-909.180,736.328,-643.555,-468.262,Default
1614035081.871,536.133,571.777,-666.992,-1000.000,Default
1614035081.875,-1000.000,-965.332,-509.766,382.324,Default
1614035081.879,-1000.000,-1000.000,-403.320,-775.391,Default
1614035081.882,411.621,42.480,-600.098,74.219,Default
1614035081.886,-865.234,-946.289,-587.402,-1000.000,Default
1614035081.890,-273.926,-356.445,-552.246,-150.391,Default
1614035081.894,-1000.000,-1000.000,-444.824,-775.879,Default
1614035081.898,-118.164,-209.961,-615.723,215.820,Default
1614035081.902,-798.340,-843.262,-657.227,-1000.000,Default
1614035081.906,219.727,195.312,-687.500,-274.414,Default
1614035081.910,-1000.000,-1000.000,-476.074,-822.266,Default
1614035081.914,-262.695,-505.859,-453.125,568.848,Default
1614035081.918,-810.547,-914.062,-645.996,-1000.000,Default
1614035081.921,240.723,253.418,-679.199,-614.746,Default
1614035081.925,-1000.000,-1000.000,-427.734,919.922,Default
1614035081.929,-632.812,-1000.000,-272.461,-903.809,Default
1614035081.933,947.754,460.938,-552.734,-258.789,Default
1614035081.937,603.516,628.906,-699.219,-1000.000,Default
1614035081.941,-885.742,-866.699,-519.531,194.336,Default
1614035081.945,-1000.000,-1000.000,-349.609,-756.348,Default
1614035081.949,213.867,-108.887,-632.812,187.988,Default
1614035081.953,-812.012,-884.277,-696.777,-1000.000,Default
1614035081.957,-118.652,-159.668,-597.168,-267.090,Default
1614035081.960,-1000.000,-1000.000,-388.672,-796.875,Default
1614035081.964,-228.516,-218.262,-541.504,238.770,Default
1614035081.968,-821.289,-835.938,-650.879,-1000.000,Default
1614035081.972,237.793,245.605,-647.461,-297.852,Default
1614035081.976,-1000.000,-1000.000,-337.402,-860.352,Default
1614035081.980,-335.938,-623.535,-373.047,705.078,Default
1614035081.984,-832.520,-971.680,-687.988,-907.715,Default
1614035081.988,341.309,345.703,-682.129,-806.152,Default
1614035081.992,-1000.000,-1000.000,-496.582,750.977,Default
1614035081.996,-784.668,-1000.000,-411.621,-849.609,Default
1614035082.000,798.340,293.457,-625.977,-150.879,Default
1614035082.003,895.508,850.586,-652.832,-1000.000,Default
1614035082.007,-642.090,-703.613,-503.418,77.637,Default
1614035082.011,-1000.000,-1000.000,-370.117,-757.324,Default
1614035082.015,108.887,-187.988,-606.934,195.801,Default
1614035082.019,-796.387,-868.652,-600.098,-1000.000,Default
1614035082.023,-7.812,-14.160,-553.223,-272.949,Default
1614035082.027,-1000.000,-1000.000,-496.094,-803.223,Default
1614035082.031,-238.770,-291.504,-560.059,364.746,Default
1614035082.035,-819.824,-849.609,-631.348,-1000.000,Default
1614035082.039,246.094,250.000,-689.453,-455.566,Default
1614035082.042,-1000.000,-1000.000,-490.234,-951.172,Default
1614035082.046,-422.363,-747.070,-424.805,879.883,Default
1614035082.050,-992.676,757.324,-647.461,-680.664,Default
1614035082.054,342.773,309.082,-692.871,-967.773,Default
1614035082.058,-1000.000,-986.328,-495.605,564.941,Default
1614035082.062,-921.875,-1000.000,-368.652,-806.641,Default
1614035082.066,603.027,136.230,-554.199,-39.551,Default
1614035082.070,-953.125,980.957,-655.762,-1000.000,Default
1614035082.074,-424.805,-503.418,-585.938,-35.645,Default
1614035082.078,-1000.000,-1000.000,-364.746,-763.672,Default
1614035082.082,-10.742,-202.148,-583.008,205.566,Default
1614035082.085,-792.480,-853.516,-675.781,-1000.000,Default
1614035082.089,106.445,104.980,-667.969,-275.879,Default
1614035082.093,-1000.000,-1000.000,-437.012,-814.941,Default
1614035082.097,-250.000,-418.945,-461.426,509.277,Default
1614035082.101,-816.406,-886.230,-659.180,-1000.000,Default
1614035082.105,242.188,250.000,-704.102,-575.684,Default
1614035082.109,-1000.000,-1000.000,-375.488,972.168,Default
1614035082.113,-561.035,-934.570,-294.434,-995.117,Default
1614035082.117,-947.754,653.320,-634.766,-470.703,Default
1614035082.121,624.512,615.723,-704.590,-1000.000,Default
1614035082.124,-959.961,-939.453,-412.598,382.324,Default
1614035082.128,-1000.000,-1000.000,-149.902,-775.391,Default
1614035082.132,410.156,-17.578,-606.445,74.219,Default
1614035082.136,-847.656,-915.527,-701.660,-1000.000,Default
1614035082.140,-227.051,-280.273,-565.918,-152.344,Default
1614035082.144,-1000.000,-1000.000,-403.809,-769.043,Default
1614035082.148,-149.902,-193.848,-589.844,197.266,Default
1614035082.152,-866.211,-896.484,-650.391,-1000.000,Default
1614035082.156,138.184,130.859,-643.066,-186.035,Default
1614035082.160,-1000.000,-1000.000,-430.664,-840.332,Default
1614035082.163,-265.625,-540.039,-445.801,616.699,Default
1614035082.167,-812.012,-929.688,-625.488,-1000.000,Default
1614035082.171,304.199,277.832,-605.469,-671.875,Default
1614035082.175,-1000.000,-1000.000,-451.660,894.043,Default
1614035082.179,-650.879,-1000.000,-415.039,-895.508,Default
1614035082.183,972.168,421.875,-627.441,-261.230,Default
1614035082.187,774.414,747.070,-645.020,-1000.000,Default
1614035082.191,-771.973,-828.613,-545.410,187.988,Default
1614035082.195,-1000.000,-1000.000,-393.555,-755.859,Default
1614035082.199,186.523,-145.508,-605.957,187.988,Default
1614035082.203,-813.477,-878.906,-658.203,-1000.000,Default
1614035082.206,-115.723,-114.258,-594.727,-271.484,Default
1614035082.210,-1000.000,-1000.000,-384.277,-798.828,Default
1614035082.214,-228.516,-234.375,-458.008,315.430,Default
1614035082.218,-822.754,-838.867,-582.520,-1000.000,Default
1614035082.222,243.652,249.512,-717.285,-377.930,Default
1614035082.226,-1000.000,-1000.000,-457.031,-881.348,Default
1614035082.230,-333.008,-638.184,-379.883,743.164,Default
1614035082.234,-952.637,868.164,-660.645,-799.316,Default
1614035082.238,268.555,236.816,-706.055,-767.090,Default
1614035082.242,-1000.000,-1000.000,-460.938,800.293,Default
1614035082.245,-740.723,-985.352,-318.359,970.215,Default
1614035082.249,882.324,515.137,-603.516,-522.949,Default
1614035082.253,905.762,875.000,-713.867,-1000.000,Default
1614035082.257,-601.562,-649.414,-525.879,67.871,Default
1614035082.261,-1000.000,-1000.000,-273.926,-774.902,Default
1614035082.265,65.430,-194.824,-607.422,198.242,Default
1614035082.269,-801.758,-865.723,-698.730,-1000.000,Default
1614035082.273,-2.930,20.020,-645.020,-275.879,Default
1614035082.277,-1000.000,-1000.000,-481.934,-806.152,Default
1614035082.281,-239.746,-336.426,-541.016,434.082,Default
1614035082.284,-812.988,-862.793,-659.668,-1000.000,Default
1614035082.288,223.633,247.070,-675.293,-480.957,Default
1614035082.292,-1000.000,-1000.000,-422.363,-953.613,Default
1614035082.296,-379.883,-827.637,-364.258,889.160,Default
1614035082.300,-901.855,799.316,-638.184,-670.410,Default
1614035082.304,535.156,523.438,-646.484,-966.309,Default
1614035082.308,-1000.000,-989.258,-308.594,561.523,Default
1614035082.312,-986.328,-1000.000,-262.695,-803.711,Default
1614035082.316,519.043,97.656,-658.203,13.184,Default
1614035082.320,-949.707,-990.723,-687.988,-1000.000,Default
1614035082.324,-414.551,-451.172,-568.359,-99.121,Default
1614035082.327,-1000.000,-1000.000,-421.875,-771.484,Default
1614035082.331,-109.863,-205.078,-616.211,213.379,Default
1614035082.335,-802.246,-849.609,-644.531,-1000.000,Default
1614035082.339,119.629,145.020,-662.598,-256.836,Default
1614035082.343,-1000.000,-1000.000,-457.520,-873.535,Default
1614035082.347,-162.598,-459.473,-435.547,440.918,Default
1614035082.351,-825.684,-899.414,-540.527,-1000.000,Default
1614035082.355,241.699,251.953,-646.484,-591.309,Default
1614035082.359,-1000.000,-1000.000,-498.535,940.430,Default
1614035082.363,-561.035,-971.191,-395.996,-942.871,Default
1614035082.366,-946.777,596.680,-639.648,-329.590,Default
1614035082.370,625.977,645.020,-705.078,-1000.000,Default
1614035082.374,-930.664,-924.805,-542.969,212.891,Default
1614035082.378,-1000.000,-1000.000,-405.762,-760.254,Default
1614035082.382,291.992,-42.480,-627.441,187.500,Default
1614035082.386,-843.262,-899.902,-664.062,-1000.000,Default
1614035082.390,-221.680,-237.793,-609.375,-266.602,Default
1614035082.394,-1000.000,-1000.000,-286.133,-794.922,Default
1614035082.398,-220.703,-214.355,-406.250,228.027,Default
1614035082.402,-823.730,-839.355,-666.016,-1000.000,Default
1614035082.406,233.887,231.445,-690.430,-271.484,Default
1614035082.409,-1000.000,-1000.000,-365.234,-829.590,Default
1614035082.413,-266.113,-582.031,-355.957,617.188,Default
1614035082.417,-809.082,-948.242,-678.711,-1000.000,Default
1614035082.421,337.402,303.223,-684.082,-668.945,Default
1614035082.425,-1000.000,-1000.000,-447.266,889.160,Default
1614035082.429,-682.617,-1000.000,-389.160,-887.695,Default
1614035082.433,948.242,379.395,-655.762,-215.332,Default
1614035082.437,774.414,784.668,-656.738,-1000.000,Default
1614035082.441,-766.113,-790.527,-481.445,141.602,Default
1614035082.445,-1000.000,-1000.000,-389.648,-756.348,Default
1614035082.448,120.605,-164.551,-648.438,191.406,Default
1614035082.452,-805.664,-873.535,-659.180,-1000.000,Default
1614035082.456,-46.875,-65.918,-609.375,-272.461,Default
1614035082.460,-1000.000,-1000.000,-460.938,-798.340,Default
1614035082.464,-234.375,-258.301,-550.293,333.496,Default
1614035082.468,-818.848,-843.262,-609.863,-1000.000,Default
1614035082.472,238.770,246.094,-638.184,-375.000,Default
1614035082.476,-1000.000,-1000.000,-448.242,-898.438,Default
1614035082.480,-369.629,-713.379,-384.277,796.875,Default
1614035082.484,-845.215,943.359,-608.398,-801.758,Default
1614035082.487,437.988,429.688,-665.527,-870.117,Default
1614035082.491,-1000.000,-1000.000,-473.145,688.965,Default
1614035082.495,-849.609,-1000.000,-388.184,-824.707,Default
1614035082.499,733.887,205.566,-561.523,-38.574,Default
1614035082.503,923.340,928.711,-600.586,-1000.000,Default
1614035082.507,-595.703,-592.773,-568.359,-35.645,Default
1614035082.511,-1000.000,-1000.000,-396.484,-763.672,Default
1614035082.515,-3.418,-198.730,-610.840,205.078,Default
1614035082.519,-795.898,-859.863,-656.250,-1000.000,Default
1614035082.523,105.469,62.988,-648.438,-275.879,Default
1614035082.527,-1000.000,-1000.000,-422.852,-812.012,Default
1614035082.530,-250.000,-372.070,-432.129,495.117,Default
1614035082.534,-813.965,-872.559,-645.996,-1000.000,Default
1614035082.538,240.723,250.000,-708.984,-519.043,Default
1614035082.542,-1000.000,-1000.000,-394.531,-998.047,Default
1614035082.546,-492.676,-866.699,-309.570,987.793,Default
1614035082.550,-902.832,756.836,-651.367,-477.051,Default
1614035082.554,535.645,558.105,-699.219,-1000.000,Default
1614035082.558,-1000.000,-973.633,-487.305,382.324,Default
1614035082.562,-1000.000,-1000.000,-351.562,-775.879,Default
1614035082.566,440.918,56.152,-630.371,75.684,Default
1614035082.569,-867.676,-944.824,-686.035,-1000.000,Default
1614035082.573,-304.199,-390.137,-551.758,-132.324,Default
1614035082.577,-1000.000,-1000.000,-352.051,-832.520,Default
1614035082.581,-29.785,-121.094,-559.082,127.441,Default
1614035082.585,-809.570,-855.957,-645.996,-1000.000,Default
1614035082.589,219.727,185.059,-622.070,-274.414,Default
1614035082.593,-1000.000,-1000.000,-262.695,-821.289,Default
1614035082.597,-262.695,-500.000,-343.262,548.340,Default
1614035082.601,-810.547,-912.598,-694.824,-1000.000,Default
1614035082.605,239.258,252.930,-698.730,-571.777,Default
1614035082.608,-1000.000,-1000.000,-479.980,948.242,Default
1614035082.612,-643.555,-1000.000,-410.156,-919.434,Default
1614035082.616,999.512,531.250,-642.090,-306.152,Default
1614035082.620,653.809,680.176,-664.062,-1000.000,Default
1614035082.624,-916.504,-900.391,-505.371,298.828,Default
1614035082.628,-1000.000,-1000.000,-397.461,-769.043,Default
1614035082.632,215.820,-85.938,-603.516,187.988,Default
1614035082.636,-812.500,-883.301,-613.281,-1000.000,Default
1614035082.640,-118.652,-169.922,-600.098,-267.090,Default
1614035082.644,-1000.000,-1000.000,-445.801,-795.898,Default
1614035082.648,-228.516,-218.262,-538.086,236.816,Default
1614035082.651,-819.824,-835.449,-602.539,-1000.000,Default
1614035082.655,236.328,246.582,-697.266,-286.133,Default
1614035082.659,-1000.000,-1000.000,-470.215,-860.840,Default
1614035082.663,-313.477,-610.352,-426.758,722.168,Default
1614035082.667,-824.707,-960.938,-646.484,-895.508,Default
1614035082.671,337.891,324.707,-684.570,-781.250,Default
1614035082.675,-1000.000,-1000.000,-431.152,783.691,Default
1614035082.679,-786.133,-1000.000,-266.113,-855.957,Default
1614035082.683,800.781,318.848,-588.379,-149.414,Default
1614035082.687,887.207,838.867,-714.355,-1000.000,Default
1614035082.690,-653.320,-721.191,-551.758,78.125,Default
1614035082.694,-1000.000,-1000.000,-255.859,-756.836,Default
1614035082.698,108.887,-178.223,-502.441,195.801,Default
1614035082.702,-796.387,-868.652,-686.523,-1000.000,Default
1614035082.706,-7.324,-27.832,-628.418,-272.949,Default
1614035082.710,-1000.000,-1000.000,-349.121,-800.293,Default
1614035082.714,-238.770,-283.691,-456.543,355.957,Default
1614035082.718,-818.848,-848.145,-645.996,-1000.000,Default
1614035082.722,241.211,246.582,-656.738,-396.973,Default
1614035082.726,-1000.000,-1000.000,-361.816,-916.504,Default
1614035082.730,-435.059,-761.719,-360.840,837.402,Default
1614035082.733,-873.047,889.160,-682.129,-723.633,Default
1614035082.737,458.496,467.773,-686.523,-944.824,Default
1614035082.741,-1000.000,-1000.000,-497.070,588.867,Default
1614035082.745,-912.598,-1000.000,-421.387,-811.035,Default
1614035082.749,602.051,154.297,-642.578,-37.109,Default
1614035082.753,-944.336,973.145,-684.570,-1000.000,Default
1614035082.757,-444.336,-545.898,-528.809,-16.602,Default
1614035082.761,-1000.000,-1000.000,-357.422,-819.824,Default
1614035082.765,84.473,-113.770,-616.211,117.188,Default
1614035082.769,-801.758,-865.234,-608.398,-1000.000,Default
1614035082.772,105.957,99.121,-536.133,-275.879,Default
1614035082.776,-1000.000,-1000.000,-423.828,-812.500,Default
1614035082.780,-250.000,-404.785,-513.184,475.586,Default
1614035082.784,-816.406,-880.371,-660.645,-1000.000,Default
1614035082.788,242.188,249.023,-709.961,-507.324,Default
1614035082.792,-1000.000,-1000.000,-448.242,-998.535,Default
1614035082.796,-561.035,-921.387,-379.395,993.652,Default
1614035082.800,-943.848,674.316,-654.785,-465.820,Default
1614035082.804,592.773,600.586,-698.242,-1000.000,Default
1614035082.808,-980.469,-949.707,-537.109,382.324,Default
1614035082.811,-1000.000,-1000.000,-362.793,-775.391,Default
1614035082.815,407.715,9.277,-556.641,74.219,Default
1614035082.819,-844.238,-927.734,-672.852,-1000.000,Default
1614035082.823,-232.422,-312.500,-611.816,-150.879,Default
1614035082.827,-1000.000,-1000.000,-348.145,-775.879,Default
1614035082.831,-125.488,-211.426,-504.395,215.820,Default
1614035082.835,-798.340,-841.797,-666.504,-1000.000,Default
1614035082.839,220.703,208.008,-687.988,-274.414,Default
1614035082.843,-1000.000,-1000.000,-401.367,-826.660,Default
1614035082.847,-262.695,-530.273,-388.184,595.215,Default
1614035082.851,-811.035,-924.316,-663.086,-1000.000,Default
1614035082.854,247.070,268.555,-701.660,-656.250,Default
1614035082.858,-1000.000,-1000.000,-378.418,898.926,Default
1614035082.862,-641.602,-1000.000,-275.391,-897.461,Default
1614035082.866,966.797,461.426,-633.789,-260.742,Default
1614035082.870,778.320,730.957,-714.844,-1000.000,Default
1614035082.874,-776.855,-844.238,-424.805,187.988,Default
1614035082.878,-1000.000,-1000.000,-174.805,-755.859,Default
1614035082.882,220.703,-128.418,-588.379,187.988,Default
1614035082.886,-811.035,-876.465,-692.383,-1000.000,Default
1614035082.890,-118.652,-126.465,-591.797,-269.043,Default
1614035082.893,-1000.000,-1000.000,-414.551,-798.340,Default
1614035082.897,-228.516,-223.145,-564.941,278.320,Default
1614035082.901,-822.754,-835.449,-645.020,-1000.000,Default
1614035082.905,239.746,244.629,-647.461,-344.238,Default
1614035082.909,-1000.000,-1000.000,-402.344,-882.812,Default
1614035082.913,-368.164,-658.203,-410.156,756.348,Default
1614035082.917,-844.727,996.094,-636.719,-856.934,Default
1614035082.921,406.250,372.559,-622.070,-830.078,Default
1614035082.925,-1000.000,-1000.000,-496.582,736.816,Default
1614035082.929,-791.992,-1000.000,-418.457,-845.703,Default
1614035082.932,796.387,262.207,-629.883,-151.367,Default
1614035082.936,919.922,873.047,-683.594,-1000.000,Default
1614035082.940,-604.980,-673.828,-543.945,77.637,Default
1614035082.944,-1000.000,-1000.000,-372.559,-756.836,Default
1614035082.948,92.285,-193.359,-601.074,195.801,Default
1614035082.952,-798.340,-868.652,-650.879,-1000.000,Default
1614035082.956,-5.859,-1.465,-632.812,-274.902,Default
1614035082.960,-1000.000,-1000.000,-425.781,-804.688,Default
1614035082.964,-238.281,-312.988,-435.547,403.809,Default
1614035082.968,-820.312,-856.445,-567.871,-1000.000,Default
1614035082.972,242.188,247.070,-710.938,-475.586,Default
1614035082.975,-1000.000,-1000.000,-448.242,-956.055,Default
1614035082.979,-468.262,-809.570,-370.605,890.137,Default
1614035082.983,-894.531,828.125,-670.410,-667.969,Default
1614035082.987,548.828,514.648,-703.125,-976.562,Default
1614035082.991,-1000.000,-1000.000,-480.957,583.984,Default
1614035082.995,-870.605,-1000.000,-329.102,-862.305,Default
1614035082.999,698.730,204.590,-602.539,-127.441,Default
1614035083.003,-967.773,990.234,-713.379,-1000.000,Default
1614035083.007,-419.434,-468.262,-537.109,-35.645,Default
1614035083.011,-1000.000,-1000.000,-176.270,-766.113,Default
1614035083.014,-59.570,-203.613,-512.695,205.078,Default
1614035083.018,-801.758,-851.562,-701.660,-1000.000,Default
1614035083.022,112.305,125.977,-645.508,-276.367,Default
1614035083.026,-1000.000,-1000.000,-450.195,-816.406,Default
1614035083.030,-249.023,-438.965,-497.070,529.297,Default
1614035083.034,-816.406,-893.066,-652.832,-1000.000,Default
1614035083.038,242.188,251.465,-685.547,-579.590,Default
1614035083.042,-1000.000,-1000.000,-436.523,973.633,Default
1614035083.046,-561.035,-947.266,-334.473,-995.605,Default
1614035083.050,-948.242,631.836,-626.465,-470.703,Default
1614035083.054,632.812,635.742,-656.738,-1000.000,Default
1614035083.057,-947.266,-928.223,-349.121,381.836,Default
1614035083.061,-1000.000,-1000.000,-270.508,-777.344,Default
1614035083.065,378.418,-27.832,-640.625,90.820,Default
1614035083.069,-847.656,-908.203,-677.734,-1000.000,Default
1614035083.073,-225.098,-263.184,-594.238,-196.777,Default
1614035083.077,-1000.000,-1000.000,-414.062,-786.621,Default
1614035083.081,-199.219,-213.379,-571.777,221.680,Default
1614035083.085,-817.871,-839.844,-646.973,-1000.000,Default
1614035083.089,230.957,225.586,-680.176,-273.438,Default
1614035083.093,-1000.000,-1000.000,-422.852,-829.590,Default
1614035083.096,-266.602,-561.035,-377.441,617.188,Default
1614035083.100,-809.082,-937.988,-597.168,-1000.000,Default
1614035083.104,338.867,290.527,-700.195,-671.875,Default
1614035083.108,-1000.000,-1000.000,-469.727,894.043,Default
1614035083.112,-656.250,-1000.000,-313.965,-895.996,Default
1614035083.116,975.586,402.344,-594.238,-259.766,Default
1614035083.120,770.996,768.555,-717.773,-1000.000,Default
1614035083.124,-767.090,-807.617,-551.270,177.734,Default
1614035083.128,-1000.000,-1000.000,-380.859,-756.348,Default
1614035083.132,154.297,-154.297,-633.301,188.477,Default
1614035083.135,-815.918,-877.930,-667.969,-1000.000,Default
1614035083.139,-112.793,-98.633,-631.836,-272.461,Default
1614035083.143,-1000.000,-1000.000,-290.039,-798.828,Default
1614035083.147,-228.027,-247.070,-380.371,333.496,Default
1614035083.151,-822.754,-842.773,-700.195,-1000.000,Default
1614035083.155,239.746,249.023,-698.730,-385.742,Default
1614035083.159,-1000.000,-1000.000,-415.039,-869.141,Default
1614035083.163,-369.629,-677.734,-393.066,704.102,Default
1614035083.167,-845.703,994.141,-661.621,-946.289,Default
1614035083.171,442.871,412.598,-687.500,-817.871,Default
1614035083.175,-1000.000,-1000.000,-468.750,727.051,Default
1614035083.178,-798.828,-1000.000,-381.836,-842.773,Default
1614035083.182,800.293,229.980,-640.137,-85.449,Default
1614035083.186,915.039,907.715,-665.039,-1000.000,Default
1614035083.190,-599.121,-627.441,-493.652,-10.742,Default
1614035083.194,-1000.000,-1000.000,-380.371,-764.160,Default
1614035083.198,38.086,-196.777,-637.207,203.613,Default
1614035083.202,-799.316,-863.281,-617.676,-1000.000,Default
1614035083.206,39.551,39.062,-595.215,-274.902,Default
1614035083.210,-1000.000,-1000.000,-480.469,-806.641,Default
1614035083.214,-242.676,-354.004,-526.855,439.941,Default
1614035083.217,-817.383,-869.629,-636.230,-1000.000,Default
1614035083.221,241.699,256.348,-689.453,-479.980,Default
1614035083.225,-1000.000,-1000.000,-427.734,-958.008,Default
1614035083.229,-468.262,-791.992,-372.559,904.297,Default
1614035083.233,-891.602,868.164,-594.238,-602.539,Default
1614035083.237,536.621,529.785,-596.191,-1000.000,Default
1614035083.241,-1000.000,-982.910,-522.949,408.691,Default
1614035083.245,-969.238,-1000.000,-443.359,-781.738,Default
1614035083.249,545.898,92.773,-570.312,74.219,Default
1614035083.253,-952.637,-981.934,-625.977,-1000.000,Default
1614035083.256,-415.039,-434.570,-592.285,-150.879,Default
1614035083.260,-1000.000,-1000.000,-379.395,-776.367,Default
1614035083.264,-113.770,-207.520,-585.938,215.820,Default
1614035083.268,-804.199,-847.656,-648.926,-1000.000,Default
1614035083.272,206.055,166.016,-662.598,-274.414,Default
1614035083.276,-1000.000,-1000.000,-457.520,-819.824,Default
1614035083.280,-260.742,-472.656,-437.500,546.387,Default
1614035083.284,-809.570,-902.832,-624.023,-1000.000,Default
1614035083.288,240.234,252.441,-704.590,-608.398,Default
1614035083.292,-1000.000,-1000.000,-404.297,930.664,Default
1614035083.296,-561.035,-979.492,-242.676,-928.711,Default
1614035083.299,-946.289,582.520,-648.926,-318.359,Default
1614035083.303,624.512,653.809,-715.820,-1000.000,Default
1614035083.307,-928.223,-918.457,-525.391,237.793,Default
1614035083.311,-1000.000,-1000.000,-396.973,-760.742,Default
1614035083.315,265.137,-62.012,-633.789,186.523,Default
1614035083.319,-830.078,-892.090,-691.895,-1000.000,Default
1614035083.323,-174.805,-207.031,-589.844,-261.230,Default
1614035083.327,-1000.000,-1000.000,-370.605,-793.457,Default
1614035083.331,-224.121,-216.309,-539.551,227.051,Default
1614035083.335,-820.801,-837.402,-659.668,-1000.000,Default
1614035083.338,233.887,237.305,-651.367,-270.996,Default
1614035083.342,-1000.000,-1000.000,-261.230,-833.496,Default
1614035083.346,-266.602,-593.750,-314.941,632.812,Default
1614035083.350,-808.594,-953.125,-690.918,-1000.000,Default
1614035083.354,334.473,313.965,-683.105,-671.387,Default
1614035083.358,-1000.000,-1000.000,-508.301,881.348,Default
1614035083.362,-740.723,-1000.000,-433.594,-873.047,Default
1614035083.366,911.133,369.141,-647.949,-196.289,Default
1614035083.370,728.027,762.695,-674.805,-1000.000,Default
1614035083.374,-855.957,-829.590,-504.395,205.566,Default
1614035083.378,-1000.000,-1000.000,-372.559,-766.602,Default
1614035083.381,107.422,-174.316,-592.285,192.871,Default
1614035083.385,-802.734,-874.512,-592.773,-1000.000,Default
1614035083.389,-15.625,-49.316,-622.559,-272.461,Default
1614035083.393,-1000.000,-1000.000,-479.980,-798.828,Default
1614035083.397,-237.793,-273.438,-538.574,333.496,Default
1614035083.401,-816.895,-846.680,-633.789,-1000.000,Default
1614035083.405,238.770,247.559,-700.684,-374.023,Default
1614035083.409,-1000.000,-1000.000,-403.320,-900.391,Default
1614035083.413,-376.465,-734.375,-301.270,805.176,Default
1614035083.417,-847.168,922.852,-615.723,-777.344,Default
1614035083.420,434.082,443.848,-698.242,-894.531,Default
1614035083.424,-1000.000,-1000.000,-485.840,646.484,Default
1614035083.428,-896.484,-1000.000,-299.805,-820.801,Default
1614035083.432,642.578,182.129,-547.363,-40.039,Default
1614035083.436,-1000.000,949.707,-714.844,-1000.000,Default
1614035083.440,-495.117,-557.617,-552.734,-35.156,Default
1614035083.444,-1000.000,-1000.000,-362.305,-764.160,Default
1614035083.448,-3.418,-199.707,-627.930,205.566,Default
1614035083.452,-792.969,-857.910,-670.898,-1000.000,Default
1614035083.456,105.957,74.707,-652.344,-274.902,Default
1614035083.459,-1000.000,-1000.000,-402.832,-806.641,Default
1614035083.463,-250.000,-392.090,-441.895,439.941,Default
1614035083.467,-815.918,-878.418,-638.184,-1000.000,Default
1614035083.471,241.699,250.977,-685.059,-473.633,Default
1614035083.475,-1000.000,-1000.000,-268.555,-973.633,Default
1614035083.479,-548.340,-891.602,-213.867,953.125,Default
1614035083.483,-931.641,719.727,-692.383,-527.832,Default
1614035083.487,544.434,576.172,-688.477,-1000.000,Default
1614035083.491,-1000.000,-963.379,-503.418,413.574,Default
1614035083.495,-1000.000,-1000.000,-421.875,-780.273,Default
1614035083.499,408.203,31.738,-641.113,74.219,Default
1614035083.502,-855.469,-942.383,-684.082,-1000.000,Default
1614035083.506,-255.859,-345.703,-584.473,-150.879,Default
1614035083.510,-1000.000,-1000.000,-397.461,-776.367,Default
1614035083.514,-118.652,-210.449,-590.332,215.820,Default
1614035083.518,-797.852,-843.262,-593.750,-1000.000,Default
1614035083.522,219.727,197.266,-594.727,-274.414,Default
1614035083.526,-1000.000,-1000.000,-477.539,-821.777,Default
1614035083.530,-262.695,-508.789,-483.398,558.105,Default
1614035083.534,-811.035,-915.039,-613.770,-1000.000,Default
1614035083.538,239.258,251.953,-654.785,-624.023,Default
