timestamps,TP9,AF7,AF8,TP10,Marker0
1614035018.140,-338.379,-354.492,-574.219,-270.020,Default
1614035018.144,-1000.000,-1000.000,-433.105,-893.555,0
1614035018.148,-209.961,-692.871,-540.039,789.062,0
1614035018.152,-890.625,860.352,-647.461,-832.520,0
1614035018.156,434.570,396.973,-654.785,-938.477,0
1614035018.160,-1000.000,-1000.000,-439.453,791.016,0
1614035018.164,-834.473,-941.895,-475.098,997.559,0
1614035018.168,823.730,664.551,-592.285,-712.891,0
1614035018.171,930.664,928.711,-631.348,-1000.000,0
1614035018.175,-787.109,-784.180,-611.328,630.371,0
1614035018.179,-1000.000,-1000.000,-430.176,-855.469,0
1614035018.183,682.129,529.785,-589.355,-393.555,0
1614035018.187,995.605,979.492,-687.500,-1000.000,0
1614035018.191,-664.551,-607.422,-617.188,289.551,0
1614035018.195,-1000.000,-1000.000,-319.824,-781.738,0
1614035018.199,348.633,-155.762,-510.742,373.047,0
1614035018.203,-852.051,-988.281,-705.566,-1000.000,0
1614035018.207,-246.094,-240.234,-648.926,-492.676,0
1614035018.211,-1000.000,-1000.000,-370.605,-959.473,0
1614035018.214,-418.457,-762.695,-436.035,866.699,0
1614035018.218,-958.008,809.082,-672.363,-772.461,0
1614035018.222,649.414,589.355,-681.152,-1000.000,0
1614035018.226,-990.234,-1000.000,-388.672,728.027,0
1614035018.230,-927.734,-966.309,-307.129,-989.746,0
1614035018.234,743.652,664.062,-636.230,-717.773,0
1614035018.238,-994.141,978.516,-693.359,-1000.000,0
1614035018.242,-708.008,-697.266,-553.711,620.117,0
1614035018.246,-1000.000,-1000.000,-369.141,-835.938,0
1614035018.250,685.059,457.520,-561.035,-296.875,0
1614035018.254,994.629,981.445,-688.477,-1000.000,0
1614035018.257,-652.832,-586.914,-514.648,177.734,0
1614035018.261,-1000.000,-1000.000,-195.312,-791.016,0
1614035018.265,272.461,-340.332,-519.043,577.148,0
1614035018.269,-837.402,981.445,-703.613,-993.652,0
1614035018.273,-99.609,-110.352,-628.418,-708.984,0
1614035018.277,-1000.000,-1000.000,-417.969,954.590,0
1614035018.281,-621.094,-838.867,-508.301,954.590,0
1614035018.285,955.078,735.352,-651.367,-693.359,0
1614035018.289,757.812,738.770,-645.020,-1000.000,0
1614035018.293,-923.340,-987.305,-507.812,676.270,0
1614035018.297,-1000.000,-988.770,-474.121,-976.074,0
1614035018.300,666.992,669.922,-603.027,-694.336,0
1614035018.304,-981.934,993.652,-633.301,-1000.000,0
1614035018.308,-711.914,-649.414,-601.562,543.457,0
1614035018.312,-1000.000,-1000.000,-375.000,-815.430,0
1614035018.316,669.434,353.516,-532.715,-122.559,0
1614035018.320,-957.520,-989.746,-665.039,-1000.000,0
1614035018.324,-559.570,-520.996,-620.605,-39.551,0
1614035018.328,-1000.000,-1000.000,-393.555,-837.402,0
1614035018.332,169.922,-511.230,-481.445,680.176,0
1614035018.336,-828.125,942.871,-645.020,-930.176,0
1614035018.339,74.707,75.684,-663.086,-806.641,0
1614035018.343,-1000.000,-1000.000,-405.273,897.461,0
1614035018.347,-722.168,-896.484,-409.668,971.680,0
1614035018.351,891.113,681.641,-625.000,-701.172,0
1614035018.355,832.520,827.637,-692.871,-1000.000,0
1614035018.359,-874.023,-919.434,-524.414,661.133,0
1614035018.363,-1000.000,-1000.000,-300.781,-930.176,0
1614035018.367,672.363,640.625,-560.059,-615.723,0
1614035018.371,-988.770,986.816,-728.027,-1000.000,0
1614035018.375,-695.312,-632.324,-592.285,510.254,0
1614035018.379,-1000.000,-1000.000,-329.102,-806.641,0
1614035018.382,564.941,179.688,-545.898,-20.508,0
1614035018.386,-908.203,-969.238,-718.262,-1000.000,0
1614035018.390,-452.148,-420.898,-616.699,-182.129,0
1614035018.394,-1000.000,-1000.000,-321.289,-875.977,0
1614035018.398,4.395,-626.953,-499.023,732.910,0
1614035018.402,-845.703,902.344,-702.637,-891.602,0
1614035018.406,230.469,270.996,-636.719,-876.465,0
1614035018.410,-1000.000,-1000.000,-338.379,841.309,0
1614035018.414,-804.199,-928.223,-430.664,985.840,0
1614035018.418,822.266,664.551,-684.082,-707.520,0
1614035018.422,913.086,893.555,-629.883,-1000.000,0
1614035018.425,-807.617,-836.914,-516.113,645.020,0
1614035018.429,-1000.000,-1000.000,-462.891,-889.648,0
1614035018.433,678.223,575.195,-606.934,-506.348,0
1614035018.437,-996.094,982.422,-642.578,-1000.000,0
1614035018.441,-679.688,-617.188,-574.707,401.855,0
1614035018.445,-1000.000,-1000.000,-313.965,-787.598,0
1614035018.449,456.543,-17.578,-517.578,163.574,0
1614035018.453,-871.094,-972.168,-625.977,-1000.000,0
1614035018.457,-338.379,-313.477,-603.516,-308.594,0
1614035018.461,-1000.000,-1000.000,-445.312,-910.156,0
1614035018.465,-209.961,-709.961,-523.438,808.105,0
1614035018.468,-890.625,853.027,-681.152,-817.383,0
1614035018.472,432.617,469.238,-672.363,-953.125,0
1614035018.476,-1000.000,-1000.000,-451.660,787.598,0
1614035018.480,-854.980,-944.336,-456.055,990.234,0
1614035018.484,778.320,662.109,-640.137,-714.844,0
1614035018.488,874.023,850.098,-656.250,-832.031,0
1614035018.492,-785.156,-791.504,-566.895,715.820,0
1614035018.496,-1000.000,-1000.000,-365.234,-899.414,0
1614035018.500,676.758,492.676,-518.066,-378.906,0
1614035018.504,803.223,785.156,-701.172,-963.867,Default
1614035018.508,-740.723,-679.688,-608.887,365.234,Default
1614035018.511,-1000.000,-1000.000,-257.812,-814.941,Default
1614035018.515,329.102,-227.051,-490.234,389.160,Default
1614035018.519,-838.379,-985.352,-729.004,-1000.000,Default
1614035018.523,-222.656,-197.266,-653.320,-492.676,Default
1614035018.527,-1000.000,-1000.000,-344.238,-959.961,Default
1614035018.531,-419.922,-786.621,-473.145,866.699,Default
1614035018.535,-956.055,790.527,-672.852,-774.414,Default
1614035018.539,644.531,650.391,-685.059,-995.605,Default
1614035018.543,-975.586,-1000.000,-336.914,736.816,Default
1614035018.547,-977.539,-975.098,-164.062,-991.211,Default
1614035018.550,678.223,667.480,-628.906,-717.285,Default
1614035018.554,-983.398,981.934,-714.355,-1000.000,Default
1614035018.558,-711.426,-678.711,-590.332,619.141,Default
1614035018.562,-1000.000,-1000.000,-395.020,-833.984,Default
1614035018.566,668.457,407.227,-577.148,-291.504,Default
1614035018.570,-954.102,993.164,-688.965,-1000.000,Default
1614035018.574,-563.965,-561.523,-604.004,176.758,Default
1614035018.578,-1000.000,-1000.000,-347.656,-791.016,Default
1614035018.582,225.586,-403.809,-500.000,577.148,Default
1614035018.586,-823.242,971.191,-665.039,-993.652,Default
1614035018.590,-7.324,-37.598,-634.277,-708.984,Default
1614035018.593,-1000.000,-1000.000,-399.414,954.590,Default
1614035018.597,-631.836,-863.281,-477.539,954.590,Default
1614035018.601,960.938,713.867,-652.832,-692.871,Default
1614035018.605,755.859,781.250,-658.203,-1000.000,Default
1614035018.609,-923.340,-963.867,-522.949,676.758,Default
1614035018.613,-1000.000,-999.023,-440.918,-977.051,Default
1614035018.617,668.457,670.898,-553.223,-706.055,Default
1614035018.621,-988.281,988.770,-648.926,-1000.000,Default
1614035018.625,-695.312,-641.113,-617.188,572.754,Default
1614035018.629,-1000.000,-1000.000,-293.945,-818.359,Default
1614035018.633,575.684,280.273,-458.496,-124.512,Default
1614035018.636,-926.270,-982.422,-684.082,-1000.000,Default
1614035018.640,-485.352,-484.863,-645.996,-24.902,Default
1614035018.644,-1000.000,-1000.000,-364.746,-834.473,Default
1614035018.648,6.348,-571.777,-446.289,678.711,Default
1614035018.652,-847.168,919.922,-651.855,-929.199,Default
1614035018.656,214.355,152.344,-670.898,-807.129,Default
1614035018.660,-1000.000,-1000.000,-386.230,896.973,Default
1614035018.664,-735.840,-910.156,-368.652,971.680,Default
1614035018.668,896.484,672.363,-642.090,-700.684,Default
1614035018.672,847.168,857.422,-707.520,-1000.000,Default
1614035018.676,-858.887,-889.648,-482.422,661.621,Default
1614035018.679,-1000.000,-1000.000,-319.336,-933.105,Default
1614035018.683,674.805,626.953,-596.680,-611.328,Default
1614035018.687,-993.652,983.887,-738.770,-1000.000,Default
1614035018.691,-685.547,-625.977,-560.059,470.703,Default
1614035018.695,-1000.000,-1000.000,-128.906,-796.875,Default
1614035018.699,501.953,104.492,-505.859,107.422,Default
1614035018.703,-896.484,-969.727,-754.883,-1000.000,Default
1614035018.707,-392.090,-381.836,-595.215,-242.188,Default
1614035018.711,-1000.000,-1000.000,-378.418,-887.695,Default
1614035018.715,-207.520,-666.504,-523.926,774.414,Default
1614035018.718,-893.066,878.418,-685.547,-856.934,Default
1614035018.722,434.570,353.516,-575.195,-896.973,Default
1614035018.726,-1000.000,-1000.000,-380.371,831.543,Default
1614035018.730,-834.473,-937.500,-520.020,988.770,Default
1614035018.734,823.730,665.527,-674.316,-708.984,Default
1614035018.738,930.664,914.551,-669.434,-1000.000,Default
1614035018.742,-787.109,-806.641,-575.195,641.602,Default
1614035018.746,-1000.000,-1000.000,-411.133,-881.348,Default
1614035018.750,680.176,550.293,-568.848,-469.238,Default
1614035018.754,-997.070,986.816,-678.711,-1000.000,Default
1614035018.758,-687.012,-627.930,-613.770,348.145,Default
1614035018.761,-1000.000,-1000.000,-343.262,-785.156,Default
1614035018.765,442.871,18.066,-516.602,199.707,Default
1614035018.769,929.688,861.328,-667.480,-1000.000,Default
1614035018.773,-393.555,-366.699,-598.145,-366.211,Default
1614035018.777,-1000.000,-1000.000,-365.234,-938.965,Default
1614035018.781,-383.301,-760.742,-492.676,856.445,Default
1614035018.785,-939.941,833.008,-671.875,-771.484,Default
1614035018.789,640.137,547.852,-638.184,-981.934,Default
1614035018.793,-987.305,-1000.000,-449.707,758.789,Default
1614035018.797,-928.223,-961.426,-438.965,-994.629,Default
1614035018.801,748.535,669.922,-542.969,-720.215,Default
1614035018.804,999.512,959.473,-647.461,-1000.000,Default
1614035018.808,-706.055,-713.379,-616.211,627.441,Default
1614035018.812,-951.172,-1000.000,-340.332,-953.125,Default
1614035018.816,718.262,498.535,-527.344,-408.203,Default
1614035018.820,981.445,961.426,-704.102,-1000.000,Default
1614035018.824,-657.227,-591.309,-613.281,243.652,Default
1614035018.828,-1000.000,-1000.000,-165.039,-789.551,Default
1614035018.832,345.215,-278.809,-420.898,505.859,Default
1614035018.836,-848.145,996.582,-735.840,-1000.000,Default
1614035018.840,-218.750,-156.738,-638.184,-697.266,Default
1614035018.844,-1000.000,-1000.000,-360.352,949.707,Default
1614035018.847,-513.184,-812.988,-498.047,956.543,Default
1614035018.851,998.047,767.090,-702.148,-698.242,Default
1614035018.855,712.402,701.172,-653.320,-1000.000,Default
1614035018.859,-934.570,-999.512,-489.258,676.270,Default
1614035018.863,-895.508,-884.277,-447.754,919.434,Default
1614035018.867,707.520,703.125,-614.746,-750.977,Default
1614035018.871,-999.023,973.633,-645.996,-1000.000,Default
1614035018.875,-703.613,-652.344,-590.820,599.121,Default
1614035018.879,-1000.000,-1000.000,-407.715,-834.961,Default
1614035018.883,668.457,376.953,-550.293,-263.672,Default
1614035018.886,-954.102,-998.535,-668.457,-1000.000,Default
1614035018.890,-563.965,-541.504,-607.910,32.715,Default
1614035018.894,-1000.000,-1000.000,-360.352,-829.102,Default
1614035018.898,225.586,-459.473,-526.367,641.113,Default
1614035018.902,-823.242,958.984,-637.695,-952.637,Default
1614035018.906,-7.812,17.090,-633.301,-800.293,Default
1614035018.910,-1000.000,-1000.000,-429.688,895.020,Default
1614035018.914,-647.949,-879.883,-486.816,972.168,Default
1614035018.918,947.266,696.289,-595.703,-701.172,Default
1614035018.922,766.602,806.152,-587.402,-1000.000,Default
1614035018.926,-917.969,-940.430,-566.406,661.621,Default
1614035018.929,-1000.000,-1000.000,-512.207,-932.617,Default
1614035018.933,668.945,654.297,-539.551,-606.445,Default
1614035018.937,-988.770,987.305,-638.184,-1000.000,Default
1614035018.941,-695.801,-636.719,-642.578,461.914,Default
1614035018.945,-1000.000,-1000.000,-360.352,-799.316,Default
1614035018.949,564.941,227.051,-544.922,81.055,Default
1614035018.953,-908.203,-973.145,-695.312,-1000.000,Default
1614035018.957,-452.148,-447.754,-633.301,-259.766,Default
1614035018.961,-1000.000,-1000.000,-379.883,-895.508,Default
1614035018.965,5.859,-600.586,-438.477,778.320,Default
1614035018.969,-845.703,911.621,-649.902,-858.398,Default
1614035018.972,214.355,211.426,-664.062,-896.973,Default
1614035018.976,-1000.000,-1000.000,-379.883,831.543,Default
1614035018.980,-735.840,-921.387,-458.008,988.770,Default
1614035018.984,896.484,664.551,-673.340,-709.961,Default
1614035018.988,847.168,875.977,-654.785,-1000.000,Default
1614035018.992,-858.887,-865.234,-540.527,634.277,Default
1614035018.996,-1000.000,-1000.000,-453.613,-865.234,Default
1614035019.000,675.781,605.469,-603.027,-415.527,Default
1614035019.004,-996.582,981.934,-665.039,-1000.000,Default
1614035019.008,-679.688,-620.605,-517.578,290.527,Default
1614035019.012,-1000.000,-1000.000,-250.000,-782.715,Default
1614035019.015,458.496,37.109,-549.316,373.535,Default
1614035019.019,-875.977,-975.586,-684.570,-1000.000,Default
1614035019.023,-350.586,-353.027,-624.512,-492.676,Default
1614035019.027,-1000.000,-1000.000,-437.988,-959.961,Default
1614035019.031,-209.473,-695.312,-529.785,868.652,Default
1614035019.035,-891.602,860.840,-651.367,-779.297,Default
1614035019.039,434.082,418.945,-645.508,-979.004,Default
1614035019.043,-1000.000,-1000.000,-461.426,758.789,Default
1614035019.047,-834.473,-944.824,-509.277,-994.629,Default
1614035019.051,823.730,664.551,-625.000,-716.797,Default
1614035019.054,930.664,934.082,-625.000,-1000.000,Default
1614035019.058,-787.109,-777.832,-609.863,619.141,Default
1614035019.062,-1000.000,-1000.000,-443.359,-833.496,Default
1614035019.066,681.641,533.203,-560.547,-296.387,Default
1614035019.070,997.559,979.980,-652.344,-1000.000,Default
1614035019.074,-668.457,-608.398,-616.699,191.895,Default
1614035019.078,-1000.000,-1000.000,-383.789,-791.016,Default
1614035019.082,363.770,-147.949,-502.930,576.172,Default
1614035019.086,-844.238,-983.398,-653.809,-992.676,Default
1614035019.090,-223.633,-235.352,-658.691,-708.984,Default
1614035019.094,-1000.000,-1000.000,-434.570,954.590,Default
1614035019.097,-419.922,-768.066,-429.199,954.590,Default
1614035019.101,-957.031,805.176,-525.391,-692.871,Default
1614035019.105,649.902,595.703,-624.512,-1000.000,Default
1614035019.109,-990.234,-1000.000,-502.930,677.734,Default
1614035019.113,-927.734,-966.797,-490.723,-979.980,Default
1614035019.117,743.652,664.062,-650.391,-719.727,Default
1614035019.121,-994.141,979.980,-660.156,-1000.000,Default
1614035019.125,-708.008,-694.336,-584.961,613.770,Default
1614035019.129,-1000.000,-1000.000,-401.367,-827.148,Default
1614035019.133,686.035,454.102,-566.895,-239.746,Default
1614035019.137,991.699,980.957,-697.266,-1000.000,Default
1614035019.140,-648.438,-584.961,-583.008,136.719,Default
1614035019.144,-1000.000,-1000.000,-205.078,-807.129,Default
1614035019.148,238.281,-363.770,-488.770,645.020,Default
1614035019.152,-836.914,973.633,-716.309,-939.453,Default
1614035019.156,-90.332,-102.539,-628.906,-762.207,Default
1614035019.160,-1000.000,-1000.000,-393.555,929.199,Default
1614035019.164,-621.582,-842.773,-493.164,962.891,Default
1614035019.168,955.566,729.492,-673.340,-703.125,Default
1614035019.172,757.812,750.488,-631.836,-1000.000,Default
1614035019.176,-928.223,-986.328,-509.277,664.551,Default
1614035019.180,-998.535,-984.863,-517.578,963.867,Default
1614035019.183,665.039,669.434,-620.117,-647.461,Default
1614035019.187,918.457,893.066,-601.074,-959.961,Default
1614035019.191,-745.117,-681.641,-563.477,537.109,Default
1614035019.195,-1000.000,-1000.000,-367.188,-814.453,Default
1614035019.199,659.668,335.449,-552.734,-48.828,Default
1614035019.203,-963.379,-987.793,-618.164,-1000.000,Default
1614035019.207,-545.410,-520.996,-590.332,-46.387,Default
1614035019.211,-1000.000,-1000.000,-418.945,-836.914,Default
1614035019.215,25.879,-537.109,-518.555,699.707,Default
1614035019.219,-853.516,931.152,-668.457,-910.645,Default
1614035019.223,133.789,99.609,-657.715,-814.941,Default
1614035019.226,-1000.000,-1000.000,-439.941,895.508,Default
1614035019.230,-724.609,-896.484,-501.953,972.656,Default
1614035019.234,890.625,681.641,-646.484,-703.613,Default
1614035019.238,848.633,843.750,-636.230,-1000.000,Default
1614035019.242,-858.887,-904.297,-528.809,645.020,Default
1614035019.246,-1000.000,-1000.000,-384.277,-889.648,Default
1614035019.250,673.340,640.137,-491.699,-506.348,Default
1614035019.254,-989.258,985.352,-639.160,-1000.000,Default
1614035019.258,-695.312,-629.883,-605.469,401.367,Default
1614035019.262,-1000.000,-1000.000,-299.316,-785.645,Default
1614035019.265,566.406,159.180,-523.438,161.133,Default
1614035019.269,-916.504,-970.215,-722.168,-1000.000,Default
1614035019.273,-440.430,-415.039,-641.113,-270.996,Default
1614035019.277,-1000.000,-1000.000,-364.746,-889.648,Default
1614035019.281,-147.949,-645.996,-507.324,776.855,Default
1614035019.285,-884.277,889.160,-659.180,-863.770,Default
1614035019.289,325.195,301.758,-637.207,-890.625,Default
1614035019.293,-1000.000,-1000.000,-355.469,830.078,Default
1614035019.297,-809.570,-931.152,-443.359,889.160,Default
1614035019.301,824.707,664.062,-687.012,-744.141,Default
1614035019.305,930.664,905.273,-660.156,-1000.000,Default
1614035019.308,-786.621,-823.730,-482.910,626.465,Default
1614035019.312,-1000.000,-1000.000,-369.141,-862.305,Default
1614035019.316,679.688,574.219,-614.746,-415.039,Default
1614035019.320,-996.094,981.445,-669.434,-1000.000,Default
1614035019.324,-680.176,-614.746,-583.984,290.527,Default
1614035019.328,-1000.000,-1000.000,-361.328,-782.715,Default
1614035019.332,457.031,-41.504,-535.156,373.047,Default
1614035019.336,-875.000,-976.562,-657.715,-1000.000,Default
1614035019.340,-333.008,-306.641,-546.875,-492.676,Default
1614035019.344,-1000.000,-1000.000,-410.156,-959.961,Default
1614035019.348,-290.039,-721.680,-552.246,868.164,Default
1614035019.351,-918.945,842.773,-651.855,-777.344,Default
1614035019.355,442.871,479.492,-646.484,-985.840,Default
1614035019.359,-1000.000,-1000.000,-451.660,750.000,Default
1614035019.363,-887.695,-951.172,-512.695,-993.164,Default
1614035019.367,744.629,663.086,-614.746,-717.773,Default
1614035019.371,993.652,955.078,-622.559,-1000.000,Default
1614035019.375,-725.586,-738.281,-617.188,617.188,Default
1614035019.379,-1000.000,-1000.000,-405.273,-829.590,Default
1614035019.383,683.594,489.746,-488.770,-278.320,Default
1614035019.387,997.070,977.539,-650.391,-1000.000,Default
1614035019.391,-665.527,-602.051,-647.949,176.270,Default
1614035019.394,-1000.000,-1000.000,-369.141,-790.527,Default
1614035019.398,345.215,-234.375,-534.668,577.148,Default
1614035019.402,-843.750,-997.559,-687.012,-993.652,Default
1614035019.406,-223.145,-192.383,-655.273,-708.984,Default
1614035019.410,-1000.000,-1000.000,-421.387,954.590,Default
1614035019.414,-419.922,-792.480,-496.582,954.590,Default
1614035019.418,-956.543,783.691,-648.926,-693.848,Default
1614035019.422,645.996,665.039,-669.922,-1000.000,Default
1614035019.426,-979.492,-1000.000,-455.078,667.969,Default
1614035019.430,-964.844,-977.051,-337.402,-950.684,Default
1614035019.433,694.824,667.480,-594.727,-659.180,Default
1614035019.437,-986.328,985.352,-694.824,-1000.000,Default
1614035019.441,-710.938,-671.875,-575.684,551.270,Default
1614035019.445,-1000.000,-1000.000,-186.523,-809.082,Default
1614035019.449,668.457,400.879,-502.441,-90.332,Default
1614035019.453,-954.590,992.676,-728.516,-1000.000,Default
1614035019.457,-563.477,-558.105,-577.148,-13.184,Default
1614035019.461,-1000.000,-1000.000,-338.379,-815.918,Default
1614035019.465,231.445,-432.129,-550.293,664.062,Default
1614035019.469,-825.195,961.914,-682.617,-937.012,Default
1614035019.473,-106.934,-70.801,-552.246,-515.137,Default
1614035019.476,-1000.000,-1000.000,-377.930,-976.562,Default
1614035019.480,-615.723,-862.305,-505.371,919.434,Default
1614035019.484,953.125,700.195,-666.504,-677.246,Default
1614035019.488,758.789,792.480,-582.520,-1000.000,Default
1614035019.492,-923.340,-955.078,-482.422,660.645,Default
1614035019.496,-1000.000,-1000.000,-484.375,-927.734,Default
1614035019.500,668.457,661.621,-604.492,-622.559,Default
1614035019.504,-988.281,988.770,-673.340,-1000.000,Default
1614035019.508,-700.684,-645.020,-621.094,544.434,Default
1614035019.512,-1000.000,-1000.000,-356.934,-804.688,Default
1614035019.516,562.988,256.348,-529.785,-56.641,Default
1614035019.519,992.188,925.781,-681.641,-1000.000,Default
1614035019.523,-486.328,-497.070,-606.934,-47.363,Default
1614035019.527,-1000.000,-1000.000,-375.977,-833.008,Default
1614035019.531,-1.953,-587.402,-501.953,679.199,Default
1614035019.535,-843.262,923.828,-588.379,-930.176,Default
1614035019.539,214.355,193.359,-612.305,-806.641,Default
1614035019.543,-1000.000,-1000.000,-430.664,897.461,Default
1614035019.547,-735.840,-919.434,-455.566,971.680,Default
1614035019.551,896.484,669.434,-650.879,-702.637,Default
1614035019.555,847.168,860.352,-677.734,-1000.000,Default
1614035019.559,-858.887,-882.324,-559.082,649.902,Default
1614035019.562,-1000.000,-1000.000,-406.250,-902.832,Default
1614035019.566,675.293,610.840,-561.035,-534.180,Default
1614035019.570,-994.141,984.375,-683.105,-1000.000,Default
1614035019.574,-685.547,-625.000,-608.887,408.691,Default
1614035019.578,-1000.000,-1000.000,-174.316,-787.109,Default
1614035019.582,484.375,80.566,-451.172,161.133,Default
1614035019.586,-873.047,-963.379,-743.164,-1000.000,Default
1614035019.590,-338.867,-355.469,-616.211,-270.996,Default
1614035019.594,-1000.000,-1000.000,-352.051,-889.648,Default
1614035019.598,-209.961,-680.664,-512.207,776.367,Default
1614035019.601,-885.742,875.488,-701.172,-863.770,Default
1614035019.605,428.223,375.977,-646.484,-890.625,Default
1614035019.609,-1000.000,-1000.000,-411.621,830.078,Default
1614035019.613,-734.863,-841.309,-460.449,889.160,Default
1614035019.617,857.422,698.730,-656.738,-743.652,Default
1614035019.621,914.551,907.227,-624.023,-1000.000,Default
1614035019.625,-779.297,-785.156,-508.301,628.418,Default
1614035019.629,-1000.000,-1000.000,-408.203,-866.699,Default
1614035019.633,681.641,539.062,-583.984,-430.176,Default
1614035019.637,997.559,979.980,-661.133,-1000.000,Default
1614035019.641,-667.480,-609.375,-594.238,305.664,Default
1614035019.644,-1000.000,-1000.000,-362.305,-783.691,Default
1614035019.648,367.676,-135.254,-526.367,372.559,Default
1614035019.652,-854.980,-983.887,-642.578,-1000.000,Default
1614035019.656,-253.906,-248.047,-625.977,-492.676,Default
1614035019.660,-1000.000,-1000.000,-420.898,-959.961,Default
1614035019.664,-417.969,-757.812,-503.906,868.652,Default
1614035019.668,-958.496,814.453,-595.215,-779.297,Default
1614035019.672,649.902,582.520,-613.281,-979.004,Default
1614035019.676,-990.234,-1000.000,-493.652,758.301,Default
1614035019.680,-927.734,-965.332,-503.906,-995.117,Default
1614035019.684,743.652,664.551,-662.598,-715.820,Default
1614035019.687,-994.141,976.074,-677.246,-1000.000,Default
1614035019.691,-708.008,-700.195,-608.398,626.465,Default
1614035019.695,-1000.000,-1000.000,-381.836,-849.121,Default
1614035019.699,685.547,456.055,-559.082,-341.797,Default
1614035019.703,994.141,978.516,-706.055,-1000.000,Default
1614035019.707,-660.156,-593.262,-609.863,198.730,Default
1614035019.711,-1000.000,-1000.000,-272.461,-792.969,Default
1614035019.715,295.410,-323.242,-418.945,560.059,Default
1614035019.719,-839.355,986.328,-681.641,-999.512,Default
1614035019.723,-115.723,-120.117,-666.504,-706.055,Default
1614035019.727,-1000.000,-1000.000,-355.469,953.125,Default
1614035019.730,-619.141,-832.031,-416.504,955.078,Default
1614035019.734,954.102,742.188,-677.734,-692.871,Default
1614035019.738,758.301,732.910,-678.223,-1000.000,Default
1614035019.742,-928.223,-995.117,-455.078,683.105,Default
1614035019.746,-998.535,-981.934,-432.129,-985.840,Default
1614035019.750,665.039,668.945,-641.113,-718.262,Default
1614035019.754,918.945,890.137,-656.738,-917.969,Default
1614035019.758,-745.605,-687.012,-523.438,645.996,Default
1614035019.762,-1000.000,-1000.000,-328.613,-842.285,Default
1614035019.766,661.621,342.285,-556.152,-197.754,Default
1614035019.770,-956.543,-992.676,-676.758,-1000.000,Default
1614035019.773,-556.152,-531.250,-530.762,81.543,Default
1614035019.777,-1000.000,-1000.000,-310.547,-815.430,Default
1614035019.781,141.602,-507.324,-547.852,644.043,Default
1614035019.785,-834.961,944.336,-684.082,-940.430,Default
1614035019.789,64.453,69.824,-647.949,-803.223,Default
1614035019.793,-1000.000,-1000.000,-432.129,895.508,Default
1614035019.797,-703.125,-892.578,-515.625,972.168,Default
1614035019.801,898.438,684.570,-656.738,-700.684,Default
1614035019.805,846.191,833.008,-641.602,-1000.000,Default
1614035019.809,-857.422,-915.527,-555.176,661.133,Default
1614035019.812,-1000.000,-1000.000,-481.934,-930.176,Default
1614035019.816,673.340,645.508,-609.375,-615.723,Default
1614035019.820,-988.770,986.328,-657.715,-1000.000,Default
1614035019.824,-695.312,-632.812,-591.797,512.207,Default
1614035019.828,-1000.000,-1000.000,-343.750,-805.664,Default
1614035019.832,565.430,187.500,-504.395,-49.805,Default
1614035019.836,-908.203,-965.820,-605.469,-1000.000,Default
1614035019.840,-450.684,-434.082,-620.605,-121.582,Default
1614035019.844,-1000.000,-1000.000,-412.598,-869.629,Default
1614035019.848,12.695,-533.691,-465.332,643.066,Default
1614035019.852,-837.891,929.199,-648.926,-906.250,Default
1614035019.855,208.496,244.629,-680.664,-867.188,Default
1614035019.859,-1000.000,-1000.000,-434.570,832.520,Default
1614035019.863,-786.621,-928.711,-405.762,989.258,Default
1614035019.867,832.520,663.574,-630.859,-707.520,Default
1614035019.871,916.504,895.508,-688.477,-1000.000,Default
1614035019.875,-800.293,-836.914,-559.570,645.020,Default
1614035019.879,-1000.000,-1000.000,-411.133,-889.648,Default
1614035019.883,678.711,581.543,-575.195,-506.348,Default
1614035019.887,-996.094,980.957,-700.684,-1000.000,Default
1614035019.891,-680.176,-616.211,-575.684,401.367,Default
1614035019.895,-1000.000,-1000.000,-169.434,-785.645,Default
1614035019.898,456.543,-25.391,-493.652,161.133,Default
1614035019.902,-871.094,-976.074,-740.723,-1000.000,Default
1614035019.906,-338.379,-316.406,-604.004,-271.484,Default
1614035019.910,-1000.000,-1000.000,-296.387,-901.367,Default
1614035019.914,-209.961,-714.355,-481.445,817.383,Default
1614035019.918,-890.625,848.145,-702.637,-799.805,Default
1614035019.922,431.641,458.008,-618.164,-952.148,Default
1614035019.926,-1000.000,-1000.000,-427.246,800.293,Default
1614035019.930,-857.910,-936.523,-520.996,987.793,Default
1614035019.934,799.316,691.895,-674.805,-742.188,Default
1614035019.938,590.820,562.988,-632.324,-640.625,Default
1614035019.941,-920.410,-929.199,-490.723,812.500,Default
1614035019.945,-778.809,-879.395,-384.277,877.930,Default
1614035019.949,728.516,546.875,-577.148,-438.477,Default
1614035019.953,972.656,954.102,-637.695,-1000.000,Default
1614035019.957,-649.414,-587.402,-601.562,273.926,Default
1614035019.961,-1000.000,-1000.000,-366.211,-776.367,Default
1614035019.965,345.215,-219.238,-525.879,373.535,Default
1614035019.969,-843.750,-994.629,-598.145,-1000.000,Default
1614035019.973,-223.145,-199.219,-604.492,-500.488,Default
1614035019.977,-1000.000,-1000.000,-448.730,-966.797,Default
1614035019.980,-419.922,-790.527,-503.418,878.906,Default
1614035019.984,-946.777,795.898,-670.410,-765.137,Default
1614035019.988,636.230,636.719,-657.715,-1000.000,Default
1614035019.992,-981.445,-1000.000,-461.426,719.238,Default
1614035019.996,-766.113,-777.832,-437.988,815.918,Default
1614035020.000,773.926,741.699,-598.633,-793.945,Default
1614035020.004,979.980,951.172,-661.133,-987.305,Default
1614035020.008,-694.336,-659.180,-592.773,601.562,Default
1614035020.012,-1000.000,-1000.000,-328.613,-824.219,Default
1614035020.016,675.293,407.227,-534.668,-278.320,Default
1614035020.020,-974.609,987.305,-720.703,-1000.000,Default
1614035020.023,-595.215,-567.871,-623.047,176.270,Default
1614035020.027,-1000.000,-1000.000,-291.016,-790.527,Default
1614035020.031,225.586,-422.363,-489.746,577.148,Default
1614035020.035,-823.730,963.867,-694.824,-993.164,Default
1614035020.039,-7.324,-35.156,-628.418,-708.984,Default
1614035020.043,-1000.000,-1000.000,-300.781,954.590,Default
1614035020.047,-631.836,-863.770,-444.336,954.590,Default
1614035020.051,961.426,711.914,-711.426,-693.848,Default
1614035020.055,756.348,783.203,-653.809,-1000.000,Default
1614035020.059,-923.340,-962.891,-426.270,666.992,Default
1614035020.063,-1000.000,-999.512,-405.273,-948.242,Default
1614035020.066,668.457,670.898,-644.531,-647.949,Default
1614035020.070,-988.281,988.770,-658.691,-1000.000,Default
1614035020.074,-695.312,-641.113,-562.012,530.273,Default
1614035020.078,-1000.000,-1000.000,-371.582,-805.176,Default
1614035020.082,574.219,279.297,-558.594,-156.250,Default
1614035020.086,-919.922,-976.562,-672.363,-1000.000,Default
1614035020.090,-490.234,-489.258,-539.551,-24.902,Default
1614035020.094,-1000.000,-1000.000,-360.352,-842.773,Default
1614035020.098,105.957,-469.727,-549.805,582.520,Default
1614035020.102,-812.988,956.055,-656.738,-964.355,Default
1614035020.106,198.242,140.625,-564.941,-790.527,Default
1614035020.109,-1000.000,-1000.000,-385.254,889.160,Default
1614035020.113,-738.770,-915.527,-529.785,974.609,Default
1614035020.117,896.484,669.434,-626.953,-702.148,Default
1614035020.121,847.168,859.375,-567.383,-1000.000,Default
1614035020.125,-858.887,-887.207,-566.406,653.320,Default
1614035020.129,-1000.000,-1000.000,-478.516,-911.133,Default
1614035020.133,675.293,625.000,-533.691,-560.059,Default
1614035020.137,-994.629,983.887,-671.875,-1000.000,Default
1614035020.141,-683.105,-625.977,-646.484,440.430,Default
1614035020.145,-1000.000,-1000.000,-345.215,-791.992,Default
1614035020.148,485.352,97.168,-547.852,135.742,Default
1614035020.152,-889.160,-968.262,-712.402,-1000.000,Default
1614035020.156,-377.441,-374.512,-642.578,-267.578,Default
1614035020.160,-1000.000,-1000.000,-395.996,-891.602,Default
1614035020.164,-208.008,-672.363,-514.648,776.855,Default
1614035020.168,-892.090,874.023,-690.918,-858.398,Default
1614035020.172,434.570,356.445,-671.875,-896.973,Default
1614035020.176,-1000.000,-1000.000,-379.883,831.543,Default
1614035020.180,-834.473,-937.012,-373.047,988.770,Default
1614035020.184,823.730,663.574,-641.602,-709.473,Default
1614035020.188,930.664,922.363,-685.547,-1000.000,Default
1614035020.191,-787.109,-797.852,-537.109,640.137,Default
1614035020.195,-1000.000,-1000.000,-338.379,-877.930,Default
1614035020.199,681.152,550.293,-576.660,-460.938,Default
1614035020.203,998.535,979.980,-719.727,-1000.000,Default
1614035020.207,-668.945,-610.352,-562.012,338.379,Default
1614035020.211,-1000.000,-1000.000,-69.336,-784.668,Default
1614035020.215,397.461,-111.328,-424.805,336.426,Default
1614035020.219,-866.211,-973.633,-743.164,-1000.000,Default
1614035020.223,-335.938,-286.133,-540.039,-430.176,Default
1614035020.227,-1000.000,-1000.000,-319.824,-937.988,Default
1614035020.231,-124.023,-462.402,-530.273,572.754,Default
1614035020.234,-837.891,941.406,-678.223,-899.902,Default
1614035020.238,587.891,501.953,-582.520,-928.223,Default
1614035020.242,-971.191,-1000.000,-438.477,735.352,Default
1614035020.246,-933.594,-968.750,-525.391,-986.816,Default
1614035020.250,742.676,663.086,-648.926,-715.332,Default
1614035020.254,-994.141,974.609,-625.488,-1000.000,Default
1614035020.258,-720.703,-718.262,-607.910,641.602,Default
1614035020.262,-1000.000,-1000.000,-435.547,-866.211,Default
1614035020.266,692.871,473.145,-565.430,-370.605,Default
1614035020.270,707.520,687.500,-663.574,-879.395,Default
1614035020.274,-788.574,-722.656,-586.426,338.379,Default
1614035020.277,-1000.000,-1000.000,-369.141,-835.938,Default
1614035020.281,316.895,-314.453,-524.414,588.379,Default
1614035020.285,-842.773,-1000.000,-599.121,-1000.000,Default
1614035020.289,-216.309,-161.621,-596.191,-512.695,Default
1614035020.293,-1000.000,-1000.000,-415.039,-969.727,Default
1614035020.297,-564.941,-817.871,-491.211,921.387,Default
1614035020.301,969.727,753.418,-659.668,-678.223,Default
1614035020.305,730.957,711.914,-669.434,-1000.000,Default
1614035020.309,-936.035,-1000.000,-509.766,666.016,Default
1614035020.313,-1000.000,-984.863,-424.805,-944.824,Default
1614035020.316,665.039,668.945,-586.426,-638.184,Default
1614035020.320,-981.445,990.723,-659.180,-1000.000,Default
1614035020.324,-711.914,-658.203,-598.633,511.230,Default
1614035020.328,-1000.000,-1000.000,-270.020,-801.270,Default
1614035020.332,668.457,374.512,-494.141,-56.641,Default
1614035020.336,-954.590,-986.328,-718.262,-1000.000,Default
1614035020.340,-563.965,-550.781,-606.445,-35.645,Default
1614035020.344,-1000.000,-1000.000,-200.684,-824.219,Default
1614035020.348,225.586,-191.895,-433.594,389.648,Default
1614035020.352,-818.848,-921.387,-694.336,-1000.000,Default
1614035020.356,-15.137,-46.875,-619.141,-758.789,Default
1614035020.359,-1000.000,-1000.000,-424.805,862.793,Default
1614035020.363,-583.008,-791.992,-507.324,882.324,Default
1614035020.367,952.148,726.074,-654.297,-743.164,Default
1614035020.371,784.180,794.922,-630.859,-1000.000,Default
1614035020.375,-881.348,-921.875,-544.922,635.254,Default
1614035020.379,-916.016,-924.316,-502.930,-986.328,Default
1614035020.383,705.078,686.523,-614.258,-540.039,Default
1614035020.387,995.117,971.191,-624.023,-1000.000,Default
1614035020.391,-687.500,-627.441,-529.297,393.555,Default
1614035020.395,-1000.000,-1000.000,-394.043,-782.715,Default
1614035020.399,564.941,214.355,-582.031,160.645,Default
1614035020.402,-907.715,-972.656,-656.250,-1000.000,Default
1614035020.406,-452.148,-441.406,-628.418,-269.531,Default
1614035020.410,-1000.000,-1000.000,-395.508,-895.508,Default
1614035020.414,5.859,-609.375,-503.418,799.316,Default
1614035020.418,-846.191,908.691,-600.098,-828.125,Default
1614035020.422,213.379,230.957,-626.953,-918.945,Default
1614035020.426,-1000.000,-1000.000,-475.098,814.941,Default
1614035020.430,-749.023,-923.340,-503.906,992.676,Default
1614035020.434,877.441,664.062,-584.961,-711.914,Default
1614035020.438,873.047,885.254,-622.070,-1000.000,Default
1614035020.442,-834.961,-852.051,-608.398,630.371,Default
1614035020.445,-1000.000,-1000.000,-478.027,-855.469,Default
1614035020.449,677.246,595.215,-599.121,-393.555,Default
1614035020.453,-996.582,982.422,-675.781,-1000.000,Default
1614035020.457,-680.176,-620.117,-613.770,289.551,Default
1614035020.461,-1000.000,-1000.000,-326.172,-781.738,Default
1614035020.465,456.543,19.531,-460.449,373.047,Default
1614035020.469,-871.094,-970.215,-645.996,-1000.000,Default
1614035020.473,-338.379,-332.031,-645.020,-492.188,Default
1614035020.477,-1000.000,-1000.000,-400.391,-959.961,Default
1614035020.481,-209.961,-699.707,-450.195,868.164,Default
1614035020.485,-890.625,859.375,-669.434,-774.414,Default
1614035020.488,432.617,437.012,-678.711,-992.188,Default
1614035020.492,-1000.000,-1000.000,-420.410,741.699,Default
1614035020.496,-856.934,-947.266,-491.699,-992.188,Default
1614035020.500,799.316,666.504,-669.922,-717.773,Default
1614035020.504,936.035,933.105,-642.578,-1000.000,Default
1614035020.508,-788.086,-773.926,-497.070,618.164,Default
1614035020.512,-1000.000,-1000.000,-348.145,-832.031,Default
1614035020.516,682.617,516.113,-603.027,-287.598,Default
1614035020.520,996.094,979.004,-685.547,-1000.000,Default
1614035020.524,-665.527,-605.957,-606.445,183.594,Default
1614035020.527,-1000.000,-1000.000,-339.355,-790.527,Default
1614035020.531,345.215,-187.500,-531.250,576.660,Default
1614035020.535,-843.750,-988.770,-682.617,-993.164,Default
1614035020.539,-223.145,-212.891,-624.512,-708.984,Default
1614035020.543,-1000.000,-1000.000,-441.895,954.590,Default
1614035020.547,-419.922,-776.855,-542.969,954.590,Default
1614035020.551,-957.031,798.828,-629.883,-693.359,Default
1614035020.555,649.902,632.324,-585.449,-1000.000,Default
1614035020.559,-990.234,-1000.000,-477.051,671.875,Default
1614035020.563,-927.734,-972.168,-532.715,-961.914,Default
1614035020.567,743.652,666.016,-619.141,-684.570,Default
1614035020.570,-994.141,981.445,-599.609,-1000.000,Default
1614035020.574,-709.473,-684.082,-625.977,575.684,Default
1614035020.578,-1000.000,-1000.000,-420.898,-814.941,Default
1614035020.582,673.340,424.805,-520.996,-91.797,Default
1614035020.586,-968.750,988.281,-651.855,-1000.000,Default
1614035020.590,-585.938,-571.777,-636.230,-40.527,Default
1614035020.594,-1000.000,-1000.000,-402.832,-834.473,Default
1614035020.598,225.586,-384.766,-478.027,679.199,Default
1614035020.602,-823.730,974.121,-638.184,-930.176,Default
1614035020.606,-7.324,-59.082,-662.598,-806.641,Default
1614035020.610,-1000.000,-1000.000,-428.223,897.461,Default
1614035020.613,-631.836,-851.562,-426.270,971.680,Default
1614035020.617,960.938,725.586,-608.887,-701.172,Default
1614035020.621,755.859,771.484,-689.453,-1000.000,Default
1614035020.625,-923.340,-969.727,-495.605,658.691,Default
1614035020.629,-1000.000,-995.605,-338.379,-924.316,Default
1614035020.633,680.664,685.547,-598.633,-602.051,Default
1614035020.637,-997.559,979.004,-692.383,-1000.000,Default
1614035020.641,-711.426,-653.320,-479.492,495.117,Default
1614035020.645,-783.203,-939.453,-336.914,-910.156,Default
1614035020.649,746.094,437.988,-566.895,-125.488,Default
1614035020.653,-996.582,971.191,-664.062,-1000.000,Default
1614035020.656,-491.699,-474.609,-612.305,-184.082,Default
1614035020.660,-1000.000,-1000.000,-362.793,-887.207,Default
1614035020.664,92.285,-542.969,-518.066,773.438,Default
1614035020.668,-860.840,934.570,-666.504,-854.004,Default
1614035020.672,219.238,141.113,-628.906,-897.949,Default
1614035020.676,-1000.000,-1000.000,-415.527,831.543,Default
1614035020.680,-736.328,-905.273,-513.672,988.770,Default
1614035020.684,896.484,678.711,-663.574,-708.496,Default
1614035020.688,847.168,853.516,-619.141,-1000.000,Default
1614035020.692,-858.887,-893.066,-408.203,642.578,Default
1614035020.695,-1000.000,-1000.000,-273.926,-883.301,Default
1614035020.699,674.316,628.906,-591.797,-492.188,Default
1614035020.703,-991.699,984.863,-610.840,-1000.000,Default
1614035020.707,-689.453,-628.418,-576.660,395.996,Default
1614035020.711,-1000.000,-1000.000,-422.852,-789.551,Default
1614035020.715,525.391,130.859,-546.387,257.812,Default
1614035020.719,-897.461,-964.355,-671.875,-1000.000,Default
1614035020.723,-411.621,-387.207,-645.508,-419.922,Default
1614035020.727,-1000.000,-1000.000,-446.777,-933.105,Default
1614035020.731,-100.098,-641.602,-530.762,839.844,Default
1614035020.735,-858.887,894.531,-659.180,-794.922,Default
1614035020.738,131.836,136.719,-600.098,-688.965,Default
1614035020.742,-1000.000,-1000.000,-403.320,882.324,Default
1614035020.746,-784.668,-900.391,-488.770,953.613,Default
1614035020.750,800.293,648.926,-639.648,-690.918,Default
1614035020.754,938.477,916.504,-642.578,-1000.000,Default
1614035020.758,-787.109,-811.523,-576.172,630.371,Default
1614035020.762,-1000.000,-1000.000,-413.086,-855.469,Default
1614035020.766,680.176,554.688,-490.234,-393.555,Default
1614035020.770,-997.559,981.445,-666.016,-1000.000,Default
1614035020.774,-677.734,-612.793,-628.906,287.109,Default
1614035020.778,-1000.000,-1000.000,-290.039,-787.109,Default
1614035020.781,441.406,-75.195,-519.531,436.523,Default
1614035020.785,-873.535,-974.609,-684.082,-1000.000,Default
1614035020.789,-326.172,-277.344,-629.395,-587.402,Default
1614035020.793,-1000.000,-1000.000,-323.730,991.211,Default
1614035020.797,-313.965,-735.352,-456.055,929.688,Default
1614035020.801,-926.758,833.496,-707.031,-700.195,Default
1614035020.805,600.586,538.574,-653.809,-1000.000,Default
1614035020.809,-997.559,-1000.000,-470.703,681.641,Default
1614035020.813,-923.828,-959.961,-526.855,-980.469,Default
1614035020.817,740.723,664.551,-659.668,-719.238,Default
1614035020.821,-993.652,965.332,-622.070,-1000.000,Default
1614035020.824,-708.008,-719.727,-586.426,617.188,Default
1614035020.828,-1000.000,-1000.000,-447.754,-829.590,Default
1614035020.832,684.570,474.609,-566.406,-278.320,Default
1614035020.836,997.070,981.934,-642.578,-1000.000,Default
1614035020.840,-664.551,-605.469,-578.125,183.105,Default
1614035020.844,-1000.000,-1000.000,-375.977,-796.387,Default
1614035020.848,340.332,-180.176,-558.105,501.465,Default
1614035020.852,-849.121,-973.633,-652.344,-1000.000,Default
1614035020.856,-217.285,-188.477,-567.383,-719.727,Default
1614035020.860,-1000.000,-1000.000,-430.664,932.129,Default
1614035020.863,-543.457,-815.918,-535.645,961.914,Default
1614035020.867,981.445,758.789,-632.812,-701.660,Default
1614035020.871,712.402,703.613,-650.391,-1000.000,Default
1614035020.875,-948.730,-1000.000,-516.113,659.180,Default
1614035020.879,-990.234,-983.398,-461.914,969.727,Default
1614035020.883,674.805,668.945,-553.711,-649.414,Default
1614035020.887,-982.422,989.746,-638.672,-1000.000,Default
1614035020.891,-711.426,-659.668,-639.160,502.930,Default
1614035020.895,-1000.000,-1000.000,-405.762,-798.340,Default
1614035020.899,668.457,374.023,-485.352,-56.641,Default
1614035020.903,-954.590,-999.512,-657.227,-1000.000,Default
1614035020.906,-563.965,-541.504,-653.809,-47.363,Default
1614035020.910,-1000.000,-1000.000,-357.422,-833.008,Default
1614035020.914,225.586,-471.191,-438.965,678.711,Default
1614035020.918,-823.242,953.613,-649.902,-927.246,Default
1614035020.922,-7.812,13.672,-682.617,-820.312,Default
1614035020.926,-1000.000,-1000.000,-380.859,885.254,Default
1614035020.930,-648.438,-878.906,-355.469,974.609,Default
1614035020.934,944.824,695.312,-602.539,-704.102,Default
1614035020.938,774.902,808.594,-678.711,-1000.000,Default
1614035020.942,-910.645,-937.988,-490.234,645.508,Default
1614035020.946,-1000.000,-1000.000,-286.621,-889.648,Default
1614035020.949,669.434,653.320,-580.078,-506.348,Default
1614035020.953,-988.770,986.328,-716.797,-1000.000,Default
1614035020.957,-695.312,-634.277,-577.637,401.367,Default
1614035020.961,-1000.000,-1000.000,-312.988,-780.273,Default
1614035020.965,564.941,207.520,-554.199,154.785,Default
1614035020.969,-908.203,-976.562,-709.961,-1000.000,Default
1614035020.973,-452.148,-446.777,-520.996,-171.387,Default
1614035020.977,-1000.000,-1000.000,-259.766,-855.957,Default
1614035020.981,5.859,-600.586,-533.203,760.254,Default
1614035020.985,-845.703,913.086,-686.523,-850.098,Default
1614035020.989,214.355,225.098,-584.473,-899.414,Default
1614035020.992,-1000.000,-1000.000,-426.758,831.543,Default
1614035020.996,-734.375,-920.410,-524.902,988.770,Default
1614035021.000,891.113,666.504,-654.785,-710.449,Default
1614035021.004,868.652,884.766,-651.367,-1000.000,Default
1614035021.008,-835.449,-852.539,-579.590,632.812,Default
1614035021.012,-1000.000,-1000.000,-479.980,-860.352,Default
1614035021.016,676.758,597.168,-588.867,-410.156,Default
1614035021.020,-996.582,982.422,-642.578,-1000.000,Default
1614035021.024,-680.176,-619.629,-605.957,306.152,Default
1614035021.028,-1000.000,-1000.000,-400.391,-783.203,Default
1614035021.031,456.543,21.973,-523.926,372.559,Default
1614035021.035,-870.605,-973.145,-604.980,-1000.000,Default
1614035021.039,-338.379,-339.355,-615.723,-492.676,Default
1614035021.043,-1000.000,-1000.000,-436.523,-959.961,Default
1614035021.047,-209.961,-697.754,-511.719,868.652,Default
1614035021.051,-891.113,860.352,-638.672,-779.297,Default
1614035021.055,434.570,429.199,-648.926,-979.004,Default
1614035021.059,-1000.000,-1000.000,-466.309,758.789,Default
1614035021.063,-834.473,-945.801,-477.051,-994.629,Default
1614035021.067,823.730,664.062,-612.305,-716.797,Default
1614035021.071,930.664,939.941,-643.066,-1000.000,Default
1614035021.074,-787.109,-767.578,-594.727,621.094,Default
1614035021.078,-1000.000,-1000.000,-336.914,-837.402,Default
1614035021.082,682.617,522.949,-530.762,-310.547,Default
1614035021.086,996.094,979.492,-722.168,-1000.000,Default
1614035021.090,-665.527,-607.422,-607.910,201.660,Default
1614035021.094,-1000.000,-1000.000,-263.184,-791.016,Default
1614035021.098,345.215,-168.945,-512.695,575.684,Default
1614035021.102,-843.750,-984.863,-698.242,-992.188,Default
1614035021.106,-222.656,-220.215,-614.746,-708.984,Default
1614035021.110,-1000.000,-1000.000,-370.605,954.590,Default
1614035021.114,-419.922,-776.855,-484.863,954.590,Default
1614035021.117,-941.895,814.453,-656.738,-708.008,Default
1614035021.121,637.695,617.188,-623.535,-1000.000,Default
1614035021.125,-1000.000,-1000.000,-474.609,697.266,Default
1614035021.129,-550.293,-594.238,-517.578,641.113,Default
1614035021.133,923.828,846.680,-630.371,-896.973,Default
1614035021.137,935.547,911.133,-628.418,-957.520,Default
1614035021.141,-677.734,-655.762,-612.305,559.082,Default
1614035021.145,-1000.000,-1000.000,-430.176,-811.523,Default
1614035021.149,683.105,433.594,-572.754,-168.457,Default
1614035021.153,-999.512,982.422,-631.836,-1000.000,Default
1614035021.157,-634.277,-579.102,-520.508,45.898,Default
1614035021.160,-1000.000,-1000.000,-347.656,-823.242,Default
1614035021.164,225.586,-391.602,-537.598,670.898,Default
1614035021.168,-825.195,967.773,-589.844,-924.805,Default
1614035021.172,-7.812,-74.219,-595.703,-808.105,Default
1614035021.176,-1000.000,-1000.000,-472.168,897.461,Default
1614035021.180,-631.836,-848.145,-520.508,971.680,Default
1614035021.184,960.938,725.586,-607.422,-700.684,Default
1614035021.188,755.859,762.695,-644.043,-1000.000,Default
1614035021.192,-923.340,-973.633,-559.570,661.133,Default
1614035021.196,-1000.000,-993.652,-505.371,-931.641,Default
1614035021.200,667.480,672.363,-629.395,-614.258,Default
1614035021.203,-984.375,991.211,-665.039,-1000.000,Default
1614035021.207,-705.078,-645.020,-555.664,492.676,Default
1614035021.211,-1000.000,-1000.000,-330.078,-798.340,Default
1614035021.215,636.719,319.824,-545.410,49.805,Default
1614035021.219,-959.473,-984.863,-690.918,-1000.000,Default
1614035021.223,-537.598,-503.418,-637.207,-166.504,Default
1614035021.227,-1000.000,-1000.000,-337.402,-869.629,Default
1614035021.231,11.230,-550.293,-402.832,754.883,Default
1614035021.235,-852.539,927.246,-663.086,-863.281,Default
1614035021.239,174.316,121.094,-685.059,-887.695,Default
1614035021.242,-1000.000,-1000.000,-396.973,838.379,Default
1614035021.246,-729.980,-904.297,-495.605,986.816,Default
1614035021.250,893.555,675.293,-678.223,-707.520,Default
1614035021.254,848.145,849.121,-643.066,-1000.000,Default
1614035021.258,-858.887,-898.926,-493.652,645.020,Default
1614035021.262,-1000.000,-1000.000,-433.105,-889.648,Default
1614035021.266,673.340,635.254,-623.535,-506.348,Default
1614035021.270,-988.770,985.352,-662.598,-1000.000,Default
1614035021.274,-696.289,-629.883,-542.969,401.367,Default
1614035021.278,-1000.000,-1000.000,-346.191,-785.645,Default
1614035021.282,562.500,145.996,-568.848,161.133,Default
1614035021.285,-907.227,-962.891,-666.504,-1000.000,Default
1614035021.289,-416.504,-393.066,-602.539,-270.996,Default
1614035021.293,-1000.000,-1000.000,-428.711,-890.137,Default
1614035021.297,-167.480,-657.227,-538.086,776.367,Default
1614035021.301,-884.277,884.277,-643.066,-858.398,Default
1614035021.305,410.156,335.938,-542.480,-896.973,Default
1614035021.309,-1000.000,-1000.000,-326.172,831.543,Default
1614035021.313,-832.031,-935.547,-500.488,988.770,Default
1614035021.317,822.266,665.039,-666.016,-708.008,Default
1614035021.321,931.152,910.645,-633.301,-1000.000,Default
1614035021.325,-787.109,-811.035,-593.262,645.020,Default
1614035021.328,-1000.000,-1000.000,-459.473,-889.648,Default
1614035021.332,679.688,551.758,-575.195,-506.836,Default
1614035021.336,-996.094,987.793,-679.688,-1000.000,Default
1614035021.340,-680.176,-620.117,-616.211,402.344,Default
1614035021.344,-1000.000,-1000.000,-341.309,-788.086,Default
1614035021.348,455.078,37.598,-474.609,163.574,Default
1614035021.352,-874.023,-937.012,-652.832,-1000.000,Default
1614035021.356,-313.477,-294.434,-655.762,-345.703,Default
1614035021.360,-1000.000,-1000.000,-412.109,-934.570,Default
1614035021.364,-375.977,-744.141,-438.965,854.492,Default
1614035021.368,-947.754,827.148,-641.602,-779.785,Default
1614035021.371,551.758,523.438,-701.660,-955.566,Default
1614035021.375,-1000.000,-1000.000,-433.105,786.133,Default
1614035021.379,-912.109,-957.031,-315.430,999.512,Default
1614035021.383,736.328,663.086,-605.957,-713.379,Default
1614035021.387,-992.188,965.332,-708.496,-1000.000,Default
1614035021.391,-708.008,-720.703,-546.875,630.371,Default
1614035021.395,-1000.000,-1000.000,-334.473,-855.957,Default
1614035021.399,684.082,476.562,-551.758,-393.555,Default
1614035021.403,997.070,977.051,-716.797,-1000.000,Default
1614035021.407,-665.527,-600.098,-582.520,288.574,Default
1614035021.410,-1000.000,-1000.000,-90.332,-785.645,Default
1614035021.414,345.703,-266.113,-418.945,409.180,Default
1614035021.418,-851.074,996.582,-742.676,-1000.000,Default
1614035021.422,-215.332,-178.223,-605.957,-576.172,Default
1614035021.426,-1000.000,-1000.000,-379.395,998.047,Default
1614035021.430,-578.125,-811.035,-516.602,921.875,Default
1614035021.434,963.379,751.953,-685.059,-700.195,Default
1614035021.438,610.352,600.098,-625.488,-946.289,Default
1614035021.442,-990.234,-1000.000,-448.242,718.750,Default
1614035021.446,-979.492,-966.309,-433.594,-997.559,Default
1614035021.450,655.273,660.156,-633.789,-711.426,Default
1614035021.453,-978.516,992.676,-620.605,-1000.000,Default
1614035021.457,-711.914,-661.133,-563.965,617.188,Default
1614035021.461,-1000.000,-1000.000,-391.602,-830.078,Default
1614035021.465,668.457,379.395,-534.180,-278.320,Default
1614035021.469,-954.590,-1000.000,-649.902,-1000.000,Default
1614035021.473,-563.477,-541.992,-619.141,175.781,Default
1614035021.477,-1000.000,-1000.000,-371.094,-787.109,Default
1614035021.481,231.934,-468.262,-511.230,579.590,Default
1614035021.485,-825.684,950.684,-689.453,-977.539,Default
1614035021.489,-107.422,-55.176,-622.559,-653.320,Default
1614035021.493,-1000.000,-1000.000,-389.160,957.520,Default
1614035021.496,-646.973,-871.582,-477.051,947.754,Default
1614035021.500,925.781,686.035,-600.098,-689.941,Default
1614035021.504,780.762,811.035,-641.602,-1000.000,Default
1614035021.508,-912.109,-938.965,-531.738,661.621,Default
1614035021.512,-1000.000,-1000.000,-411.621,-930.664,Default
1614035021.516,669.434,654.785,-594.238,-616.211,Default
1614035021.520,-988.281,987.305,-690.430,-1000.000,Default
1614035021.524,-700.684,-641.113,-586.914,511.230,Default
1614035021.528,-1000.000,-1000.000,-308.594,-800.781,Default
1614035021.532,562.988,215.820,-536.621,-56.641,Default
1614035021.536,992.676,927.246,-699.219,-1000.000,Default
1614035021.539,-486.328,-478.027,-607.422,-47.363,Default
1614035021.543,-1000.000,-1000.000,-312.012,-833.008,Default
1614035021.547,-1.953,-608.887,-497.070,678.223,Default
1614035021.551,-843.262,915.527,-716.797,-926.270,Default
1614035021.555,213.867,221.191,-661.133,-826.172,Default
1614035021.559,-1000.000,-1000.000,-297.852,879.395,Default
1614035021.563,-750.000,-922.852,-416.016,976.562,Default
1614035021.567,893.066,674.805,-709.961,-713.867,Default
1614035021.571,839.844,867.188,-647.461,-1000.000,Default
1614035021.575,-861.328,-861.816,-493.652,647.949,Default
1614035021.578,-825.195,-878.906,-434.082,911.133,Default
1614035021.582,750.977,669.434,-616.211,-588.379,Default
1614035021.586,969.727,949.219,-651.367,-1000.000,Default
1614035021.590,-664.062,-603.516,-519.043,385.742,Default
1614035021.594,-1000.000,-1000.000,-318.359,-780.762,Default
1614035021.598,456.543,20.996,-562.012,160.645,Default
1614035021.602,-870.605,-974.609,-673.340,-1000.000,Default
1614035021.606,-338.379,-341.309,-619.141,-270.996,Default
1614035021.610,-1000.000,-1000.000,-446.289,-889.648,Default
1614035021.614,-209.961,-697.754,-541.992,776.367,Default
1614035021.618,-891.113,860.352,-653.320,-857.910,Default
1614035021.621,434.570,428.711,-652.832,-898.926,Default
1614035021.625,-1000.000,-1000.000,-436.035,829.590,Default
1614035021.629,-834.473,-946.289,-450.684,989.258,Default
1614035021.633,823.730,665.527,-600.586,-710.449,Default
1614035021.637,930.664,932.617,-641.602,-1000.000,Default
1614035021.641,-787.109,-775.391,-595.703,632.812,Default
1614035021.645,-1000.000,-1000.000,-448.730,-861.328,Default
1614035021.649,682.129,520.508,-510.254,-411.133,Default
1614035021.653,996.094,978.516,-640.625,-1000.000,Default
1614035021.657,-665.527,-606.445,-639.160,302.246,Default
1614035021.661,-1000.000,-1000.000,-337.402,-782.715,Default
1614035021.664,345.215,-177.734,-534.180,372.559,Default
1614035021.668,-843.750,-988.281,-707.520,-1000.000,Default
1614035021.672,-222.656,-221.191,-650.879,-492.676,Default
1614035021.676,-1000.000,-1000.000,-379.883,-959.473,Default
1614035021.680,-419.922,-770.020,-456.055,867.188,Default
1614035021.684,-957.031,805.176,-678.711,-775.391,Default
1614035021.688,649.902,630.859,-684.570,-993.164,Default
1614035021.692,-990.234,-1000.000,-434.082,740.723,Default
1614035021.696,-927.734,-972.656,-372.070,-991.699,Default
1614035021.700,743.652,666.992,-617.676,-716.797,Default
1614035021.704,-994.141,979.492,-685.547,-1000.000,Default
1614035021.707,-708.496,-688.965,-553.711,622.559,Default
1614035021.711,-1000.000,-1000.000,-328.613,-840.332,Default
1614035021.715,681.152,434.082,-565.918,-314.941,Default
1614035021.719,-993.652,983.398,-727.539,-1000.000,Default
1614035021.723,-625.000,-580.078,-553.223,189.941,Default
1614035021.727,-1000.000,-1000.000,-70.312,-791.992,Default
1614035021.731,225.586,-374.512,-434.570,576.660,Default
1614035021.735,-824.707,974.121,-740.234,-992.676,Default
1614035021.739,-7.324,-79.590,-568.359,-708.984,Default
1614035021.743,-1000.000,-1000.000,-399.902,954.590,Default
1614035021.746,-631.836,-847.656,-531.250,954.590,Default
1614035021.750,961.426,726.562,-675.293,-692.871,Default
1614035021.754,755.859,759.766,-655.273,-1000.000,Default
1614035021.758,-923.340,-975.586,-498.047,677.734,Default
1614035021.762,-1000.000,-993.164,-481.445,-979.980,Default
1614035021.766,666.992,671.875,-615.234,-719.727,Default
1614035021.770,-983.398,991.699,-591.797,-1000.000,Default
1614035021.774,-708.008,-646.973,-586.426,604.492,Default
1614035021.778,-1000.000,-1000.000,-404.785,-827.148,Default
1614035021.782,645.996,333.496,-553.711,-168.945,Default
1614035021.786,-951.660,-982.910,-682.617,-1000.000,Default
1614035021.789,-530.762,-504.883,-621.094,-7.324,Default
1614035021.793,-1000.000,-1000.000,-367.676,-834.961,Default
1614035021.797,56.152,-538.086,-509.277,677.246,Default
1614035021.801,-838.867,934.082,-685.059,-928.711,Default
1614035021.805,206.543,119.629,-657.227,-807.129,Default
1614035021.809,-1000.000,-1000.000,-416.016,897.461,Default
1614035021.813,-736.328,-905.762,-435.059,971.191,Default
1614035021.817,896.484,676.758,-611.328,-701.172,Default
1614035021.821,847.168,839.355,-664.551,-1000.000,Default
1614035021.825,-858.887,-907.227,-521.484,661.621,Default
1614035021.829,-1000.000,-1000.000,-318.848,-932.129,Default
1614035021.832,673.828,632.812,-560.547,-612.305,Default
1614035021.836,-989.746,985.352,-727.539,-1000.000,Default
1614035021.840,-693.359,-629.395,-608.398,486.328,Default
1614035021.844,-1000.000,-1000.000,-327.637,-802.734,Default
1614035021.848,556.152,145.508,-546.875,35.156,Default
1614035021.852,-913.574,-966.797,-706.543,-1000.000,Default
1614035021.856,-443.848,-400.879,-612.305,-223.633,Default
1614035021.860,-1000.000,-1000.000,-362.793,-887.695,Default
1614035021.864,-108.398,-647.461,-501.953,763.672,Default
1614035021.868,-862.305,899.414,-661.621,-875.977,Default
1614035021.872,339.355,300.781,-623.535,-884.766,Default
1614035021.875,-1000.000,-1000.000,-297.363,832.520,Default
1614035021.879,-629.395,-736.328,-423.828,792.480,Default
1614035021.883,896.484,741.211,-678.223,-783.691,Default
1614035021.887,887.695,867.676,-624.512,-1000.000,Default
1614035021.891,-783.203,-806.641,-570.312,629.395,Default
1614035021.895,-1000.000,-1000.000,-487.793,-884.277,Default
1614035021.899,678.711,555.176,-609.375,-506.348,Default
1614035021.903,-996.094,982.910,-659.668,-1000.000,Default
1614035021.907,-679.688,-615.234,-589.844,400.879,Default
1614035021.911,-1000.000,-1000.000,-296.875,-791.504,Default
1614035021.915,456.543,-46.875,-508.789,187.500,Default
1614035021.918,-873.535,-969.238,-628.906,-1000.000,Default
1614035021.922,-335.449,-286.133,-594.238,-395.996,Default
1614035021.926,-1000.000,-1000.000,-458.496,-942.383,Default
1614035021.930,-262.207,-726.562,-532.227,836.914,Default
1614035021.934,-909.180,840.820,-677.734,-805.664,Default
1614035021.938,504.395,503.906,-668.945,-959.961,Default
1614035021.942,-1000.000,-1000.000,-461.914,773.438,Default
1614035021.946,-910.156,-955.078,-493.652,-998.535,Default
1614035021.950,735.840,664.062,-652.832,-713.867,Default
1614035021.954,-998.047,958.008,-673.340,-1000.000,Default
1614035021.957,-716.309,-729.980,-587.891,630.371,Default
1614035021.961,-1000.000,-1000.000,-349.609,-855.957,Default
1614035021.965,684.082,477.539,-486.816,-393.555,Default
1614035021.969,997.070,977.539,-691.895,-1000.000,Default
1614035021.973,-665.527,-601.074,-623.047,290.039,Default
1614035021.977,-1000.000,-1000.000,-274.902,-784.180,Default
1614035021.981,345.215,-251.953,-497.070,375.488,Default
1614035021.985,-847.656,999.512,-716.309,-1000.000,Default
1614035021.989,-219.238,-184.082,-651.367,-542.480,Default
1614035021.993,-1000.000,-1000.000,-353.027,-992.676,Default
1614035021.997,-501.465,-806.152,-470.703,909.668,Default
1614035022.000,-991.699,767.578,-702.148,-725.586,Default
1614035022.004,657.715,681.641,-642.578,-1000.000,Default
1614035022.008,-978.516,-1000.000,-394.043,706.055,Default
1614035022.012,-988.281,-979.492,-411.621,-984.863,Default
1614035022.016,661.621,668.457,-660.156,-718.750,Default
1614035022.020,-980.957,986.328,-683.594,-1000.000,Default
1614035022.024,-711.426,-666.016,-510.742,617.188,Default
1614035022.028,-1000.000,-1000.000,-297.363,-829.590,Default
1614035022.032,668.457,381.348,-578.613,-278.320,Default
1614035022.036,-954.590,995.117,-699.707,-1000.000,Default
1614035022.040,-563.965,-551.270,-605.957,176.270,Default
1614035022.043,-1000.000,-1000.000,-364.746,-791.016,Default
1614035022.047,225.586,-452.637,-533.691,576.660,Default
1614035022.051,-823.242,958.008,-659.180,-989.746,Default
1614035022.055,-7.812,-4.395,-567.383,-729.980,Default
1614035022.059,-1000.000,-1000.000,-393.066,938.965,Default
1614035022.063,-647.461,-875.977,-529.297,959.473,Default
1614035022.067,949.707,697.754,-657.715,-695.801,Default
1614035022.071,759.277,801.758,-555.176,-1000.000,Default
1614035022.075,-924.316,-945.312,-512.695,663.574,Default
1614035022.079,-1000.000,-1000.000,-520.020,-937.988,Default
1614035022.083,668.457,658.203,-619.629,-627.441,Default
1614035022.086,-988.770,987.305,-675.293,-1000.000,Default
1614035022.090,-695.312,-636.719,-622.070,511.230,Default
1614035022.094,-1000.000,-1000.000,-375.000,-801.270,Default
1614035022.098,564.941,233.398,-501.465,-56.641,Default
1614035022.102,-908.203,-978.516,-665.527,-1000.000,Default
1614035022.106,-452.148,-458.984,-633.301,-47.363,Default
1614035022.110,-1000.000,-1000.000,-330.566,-832.520,Default
1614035022.114,5.859,-602.051,-443.359,678.223,Default
1614035022.118,-846.191,911.133,-676.758,-926.758,Default
1614035022.122,214.355,211.426,-671.387,-824.707,Default
1614035022.125,-1000.000,-1000.000,-411.621,880.859,Default
1614035022.129,-735.840,-919.434,-393.555,976.074,Default
1614035022.133,909.180,682.617,-631.836,-716.797,Default
1614035022.137,834.961,857.422,-690.430,-1000.000,Default
1614035022.141,-867.188,-879.883,-530.762,657.715,Default
1614035022.145,-732.422,-776.855,-413.086,811.523,Default
1614035022.149,805.176,730.469,-586.914,-651.855,Default
1614035022.153,945.312,934.082,-696.777,-1000.000,Default
1614035022.157,-654.785,-602.539,-568.359,391.602,Default
1614035022.161,-1000.000,-1000.000,-170.410,-780.762,Default
1614035022.165,490.723,129.883,-478.516,61.035,Default
1614035022.168,-887.207,-947.754,-720.703,-1000.000,Default
1614035022.172,-330.566,-364.746,-580.078,-254.883,Default
1614035022.176,-1000.000,-1000.000,-202.148,-897.949,Default
1614035022.180,-209.961,-693.848,-468.262,779.297,Default
1614035022.184,-890.625,861.816,-716.309,-858.398,Default
1614035022.188,434.082,398.926,-617.188,-896.973,Default
1614035022.192,-1000.000,-1000.000,-392.090,831.543,Default
1614035022.196,-834.473,-942.383,-468.262,988.770,Default
1614035022.200,823.242,665.527,-668.457,-709.961,Default
1614035022.204,930.664,926.270,-589.355,-1000.000,Default
1614035022.208,-787.109,-786.621,-556.152,635.742,Default
1614035022.211,-1000.000,-1000.000,-467.285,-868.164,Default
1614035022.215,682.129,528.809,-592.285,-433.105,Default
1614035022.219,996.094,979.004,-697.754,-1000.000,Default
1614035022.223,-665.039,-606.934,-595.215,320.312,Default
1614035022.227,-1000.000,-1000.000,-294.434,-778.809,Default
1614035022.231,348.145,-164.062,-509.277,365.723,Default
1614035022.235,-850.098,-990.723,-682.617,-1000.000,Default
1614035022.239,-240.723,-237.793,-607.422,-393.066,Default
1614035022.243,-1000.000,-1000.000,-390.137,-925.781,Default
1614035022.247,-418.457,-766.602,-500.000,852.539,Default
1614035022.251,-958.008,806.152,-620.605,-771.484,Default
1614035022.254,649.902,602.539,-650.391,-981.934,Default
1614035022.258,-990.234,-1000.000,-462.402,758.789,Default
1614035022.262,-927.734,-968.262,-440.918,-994.629,Default
1614035022.266,743.652,665.527,-644.043,-715.820,Default
1614035022.270,-994.141,977.051,-692.871,-1000.000,Default
1614035022.274,-708.008,-694.824,-607.910,624.512,Default
1614035022.278,-1000.000,-1000.000,-362.305,-844.727,Default
1614035022.282,686.523,444.336,-550.781,-342.773,Default
1614035022.286,989.746,979.492,-696.289,-1000.000,Default
1614035022.290,-652.344,-587.891,-610.352,234.375,Default
1614035022.293,-1000.000,-1000.000,-222.168,-791.016,Default
1614035022.297,242.676,-355.469,-376.465,548.340,Default
1614035022.301,-836.914,976.562,-700.684,-1000.000,Default
1614035022.305,-89.355,-104.004,-666.992,-685.059,Default
1614035022.309,-1000.000,-1000.000,-340.820,961.426,Default
1614035022.313,-622.070,-840.820,-479.004,951.660,Default
1614035022.317,955.566,732.422,-707.520,-691.406,Default
1614035022.321,757.324,745.117,-651.855,-1000.000,Default
1614035022.325,-923.340,-983.887,-501.953,678.223,Default
1614035022.329,-1000.000,-990.234,-492.188,-981.934,Default
1614035022.333,666.992,670.410,-636.230,-715.332,Default
1614035022.336,-981.445,993.164,-640.137,-1000.000,Default
1614035022.340,-711.426,-648.438,-515.137,577.148,Default
1614035022.344,-1000.000,-1000.000,-341.797,-818.848,Default
1614035022.348,670.898,350.586,-566.406,-125.977,Default
1614035022.352,-966.797,-995.117,-656.738,-1000.000,Default
1614035022.356,-543.945,-528.320,-541.016,-21.484,Default
1614035022.360,-1000.000,-1000.000,-382.812,-833.984,Default
1614035022.364,32.715,-531.250,-560.059,678.223,Default
1614035022.368,-863.770,929.688,-656.250,-929.199,Default
1614035022.372,14.160,66.895,-642.090,-807.129,Default
1614035022.376,-1000.000,-1000.000,-432.129,897.461,Default
1614035022.379,-707.520,-893.066,-489.746,971.680,Default
1614035022.383,881.836,679.688,-590.820,-703.125,Default
1614035022.387,851.074,838.867,-609.863,-1000.000,Default
1614035022.391,-858.887,-910.156,-588.379,645.996,Default
1614035022.395,-1000.000,-1000.000,-520.020,-892.090,Default
1614035022.399,673.340,643.555,-556.152,-510.742,Default
1614035022.403,-988.770,985.840,-635.742,-1000.000,Default
1614035022.407,-695.312,-632.324,-631.348,401.855,Default
1614035022.411,-1000.000,-1000.000,-344.238,-785.645,Default
1614035022.415,564.941,181.152,-494.629,161.133,Default
1614035022.419,-910.156,-969.727,-671.875,-1000.000,Default
1614035022.422,-449.707,-423.340,-636.230,-268.555,Default
1614035022.426,-1000.000,-1000.000,-362.305,-897.461,Default
1614035022.430,-30.273,-633.301,-505.371,806.641,Default
1614035022.434,-854.980,897.461,-689.941,-813.477,Default
1614035022.438,245.605,280.273,-660.156,-941.895,Default
1614035022.442,-1000.000,-1000.000,-397.461,792.480,Default
1614035022.446,-801.758,-929.199,-423.828,997.559,Default
1614035022.450,823.730,664.551,-635.254,-712.891,Default
1614035022.454,918.945,896.484,-683.105,-1000.000,Default
1614035022.458,-800.781,-833.984,-524.414,630.371,Default
1614035022.462,-1000.000,-1000.000,-206.543,-855.957,Default
1614035022.465,678.711,575.684,-535.645,-393.555,Default
1614035022.469,-996.094,981.934,-744.141,-1000.000,Default
1614035022.473,-680.176,-616.211,-539.551,289.551,Default
1614035022.477,-1000.000,-1000.000,-234.863,-781.738,Default
1614035022.481,456.543,-24.414,-546.387,373.047,Default
1614035022.485,-870.605,-973.633,-701.660,-1000.000,Default
1614035022.489,-338.379,-311.523,-595.215,-491.211,Default
1614035022.493,-1000.000,-1000.000,-436.523,-962.402,Default
1614035022.497,-209.961,-709.961,-562.012,876.465,Default
