timestamps,TP9,AF7,AF8,TP10,Marker0
0.009,-1000.000,-1000.000,314.941,-792.480,0
0.013,-192.871,-592.773,-18.555,631.348,0
0.017,-902.344,923.828,-924.805,-937.012,0
0.020,238.770,285.645,-786.133,-534.668,0
0.024,-1000.000,-1000.000,158.203,-958.008,0
0.028,-808.594,-924.316,307.129,926.758,0
0.032,826.172,673.828,-723.145,-698.242,0
0.036,864.258,898.926,-994.141,-985.840,0
0.040,-863.770,-834.961,-77.148,742.188,0
0.044,-1000.000,-1000.000,414.062,-937.012,0
0.048,678.711,597.656,-522.949,-633.301,0
0.052,995.605,985.352,-1000.000,-1000.000,0
0.056,-661.133,-624.023,-308.105,590.820,0
0.059,-1000.000,-1000.000,326.660,-787.598,0
0.063,369.141,76.172,-336.426,-48.828,0
0.067,-896.484,-934.082,-1000.000,-1000.000,0
0.071,-365.723,-312.988,-513.184,181.641,0
0.075,-1000.000,-1000.000,323.242,-803.711,0
0.079,-403.809,-714.844,-17.090,731.934,0
0.083,-960.938,854.492,-900.879,-857.910,0
0.087,460.449,535.156,-779.297,-744.629,0
0.091,-1000.000,-1000.000,62.500,965.820,0
0.095,-900.391,-959.961,193.359,953.125,0
0.098,746.094,663.086,-722.656,-697.266,0
0.102,949.707,971.191,-1000.000,-1000.000,0
0.106,-787.109,-710.938,-200.684,641.113,0
0.110,-1000.000,-1000.000,292.480,-875.000,0
0.114,685.059,465.332,-551.270,-543.457,0
0.118,988.281,991.699,-1000.000,-1000.000,0
0.122,-649.414,-576.172,-380.371,577.148,0
0.126,-1000.000,-1000.000,379.395,-785.156,0
0.130,246.094,-301.758,-127.441,173.340,0
0.134,-854.492,-996.582,-983.887,-1000.000,0
0.137,-208.984,-72.754,-624.512,12.695,0
0.141,-1000.000,-1000.000,310.547,-828.613,0
0.145,-642.090,-825.195,116.699,802.246,0
0.149,935.547,757.812,-856.445,-786.621,0
0.153,685.547,747.559,-867.188,-839.355,0
0.157,-987.793,-976.074,92.773,905.762,0
0.161,-986.328,-991.699,393.066,971.680,0
0.165,662.598,670.898,-635.742,-706.055,0
0.169,-987.793,993.652,-1000.000,-1000.000,0
0.173,-693.359,-650.391,-135.742,625.488,0
0.176,-1000.000,-1000.000,425.293,-840.332,0
0.180,583.984,345.215,-505.371,-429.688,0
0.184,-960.938,-973.633,-1000.000,-1000.000,0
0.188,-537.109,-490.723,-413.574,474.121,0
0.192,-1000.000,-1000.000,359.863,-781.250,0
0.196,-49.316,-518.066,-122.559,434.570,0
0.200,-886.719,946.777,-997.559,-1000.000,0
0.204,22.461,145.508,-660.156,-261.719,0
0.208,-1000.000,-1000.000,341.309,-891.602,0
0.212,-774.902,-899.414,143.555,897.949,0
0.215,830.566,684.570,-885.254,-695.312,0
0.219,818.848,862.793,-866.699,-927.246,0
0.223,-906.738,-881.348,157.227,837.402,0
0.227,-1000.000,-1000.000,304.199,990.723,0
0.231,672.852,633.789,-676.758,-713.379,0
0.235,-996.094,986.328,-1000.000,-1000.000,0
0.239,-682.617,-637.207,-287.598,617.676,0
0.243,-1000.000,-1000.000,329.590,-822.754,0
0.247,472.656,142.578,-407.227,-304.199,0
0.251,984.375,950.684,-1000.000,-1000.000,0
0.254,-463.379,-396.484,-479.492,375.488,0
0.258,-1000.000,-1000.000,354.980,-808.594,0
0.262,-269.531,-661.133,-12.695,627.930,0
0.266,-920.898,895.996,-934.570,-945.801,0
0.270,266.602,396.973,-742.676,-532.715,0
0.274,-1000.000,-1000.000,166.504,-958.984,0
0.278,-877.930,-943.359,170.898,926.758,0
0.282,739.746,662.598,-751.953,-698.242,0
0.286,926.270,937.500,-960.449,-985.840,0
0.290,-817.383,-779.297,-73.730,742.188,0
0.293,-1000.000,-1000.000,359.863,-937.012,0
0.297,682.129,556.641,-581.055,-632.812,0
0.301,993.164,980.469,-1000.000,-1000.000,0
0.305,-657.227,-612.793,-333.008,589.355,0
0.309,-1000.000,-1000.000,397.461,-790.039,0
0.313,327.637,-108.398,-166.992,-3.906,0
0.317,-885.742,-968.750,-1000.000,-1000.000,0
0.321,-312.500,-231.934,-574.707,174.805,0
0.325,-1000.000,-1000.000,383.301,-799.805,0
0.329,-575.195,-758.789,54.199,729.980,0
0.332,967.773,815.430,-921.875,-857.910,0
0.336,533.203,620.605,-819.336,-744.629,0
0.340,-1000.000,-1000.000,201.172,965.820,0
0.344,-964.844,-971.680,376.465,953.125,0
0.348,656.250,665.039,-720.215,-697.266,0
0.352,999.512,983.398,-1000.000,-1000.000,0
0.356,-740.234,-693.359,-16.113,641.602,0
0.360,-1000.000,-1000.000,364.258,-877.930,0
0.364,686.523,460.938,-581.055,-525.391,0
0.368,988.770,999.512,-1000.000,-1000.000,0
0.372,-649.414,-564.453,-294.434,503.418,0
0.375,-1000.000,-1000.000,498.535,-777.344,0
0.379,246.094,-309.570,-112.305,327.637,0
0.383,-854.980,-996.094,-982.910,-1000.000,0
0.387,-209.473,-57.617,-671.387,-96.191,0
0.391,-1000.000,-1000.000,193.848,-827.637,0
0.395,-648.438,-827.148,32.715,808.105,0
0.399,924.316,747.559,-888.672,-784.180,0
0.403,491.211,547.363,-798.340,-644.043,0
0.407,-1000.000,-1000.000,47.363,981.445,0
0.411,-952.637,-957.520,225.586,938.477,0
0.414,646.484,655.762,-656.738,-692.383,0
0.418,-981.934,995.117,-1000.000,-1000.000,0
0.422,-693.359,-654.297,-330.078,613.281,0
0.426,-1000.000,-1000.000,256.348,-817.383,0
0.430,583.008,345.215,-398.926,-321.777,0
0.434,-956.543,-981.934,-1000.000,-1000.000,0
0.438,-543.457,-504.395,-510.254,371.094,0
0.442,-1000.000,-1000.000,328.613,-773.926,0
0.446,24.414,-516.602,26.367,545.898,0
0.450,-865.723,945.312,-900.391,-980.957,0
0.453,15.137,131.348,-772.949,-323.730,0
0.457,-1000.000,-1000.000,156.738,-895.508,0
0.461,-709.961,-887.695,176.270,899.414,0
0.465,892.578,698.242,-800.781,-691.406,0
0.469,799.805,853.027,-956.543,-957.031,0
0.473,-905.762,-891.113,-93.262,783.691,0
0.477,-1000.000,-1000.000,390.137,-956.055,0
0.481,672.363,640.625,-542.969,-647.461,0
0.485,-996.582,985.352,-1000.000,-1000.000,0
0.489,-677.246,-631.836,-329.590,600.098,0
0.492,-1000.000,-1000.000,301.270,-792.969,0
0.496,473.633,152.832,-319.336,-192.871,0
0.500,-912.598,-955.078,-1000.000,-1000.000,0
0.504,-433.594,-377.930,-528.320,268.555,0
0.508,-1000.000,-1000.000,329.590,-787.598,0
0.512,-193.359,-644.043,-16.602,645.020,0
0.516,-901.367,896.973,-926.270,-928.223,0
0.520,236.328,370.605,-739.746,-537.598,0
0.524,-1000.000,-1000.000,153.809,-956.543,0
0.528,-842.285,-939.453,156.250,922.363,0
0.531,770.020,660.645,-783.203,-688.477,0
0.535,933.105,937.988,-912.109,-1000.000,0
0.539,-800.781,-779.297,-58.594,674.316,0
0.543,-1000.000,-1000.000,303.223,-887.207,0
0.547,683.594,555.664,-561.035,-556.152,0
0.551,990.234,976.562,-1000.000,-1000.000,0
0.555,-651.367,-607.910,-380.371,578.125,0
0.559,-1000.000,-1000.000,298.828,-779.297,0
0.563,291.992,-170.898,-264.160,121.582,0
0.567,-887.207,-984.863,-1000.000,-1000.000,0
0.570,-309.570,-216.797,-602.539,129.395,0
0.574,-1000.000,-1000.000,307.617,-791.504,0
0.578,-602.051,-776.367,49.805,729.492,0
0.582,956.055,797.852,-915.039,-859.375,0
0.586,647.949,665.527,-824.707,-744.629,0
0.590,-999.512,-1000.000,128.418,965.332,0
0.594,-981.445,-978.027,282.227,953.125,0
0.598,658.691,666.504,-693.359,-698.730,0
0.602,-981.934,989.258,-1000.000,-1000.000,0
0.606,-704.590,-676.270,-144.531,630.859,0
0.609,-1000.000,-1000.000,371.582,-853.027,0
0.613,665.527,428.711,-539.062,-464.844,0
0.617,979.492,999.512,-1000.000,-1000.000,0
0.621,-628.906,-552.246,-373.535,494.141,0
0.625,-1000.000,-1000.000,430.664,-773.438,0
0.629,41.504,-404.785,-95.215,337.891,0
0.633,-891.602,974.609,-1000.000,-1000.000,0
0.637,-149.902,-10.742,-607.422,-97.656,0
0.641,-1000.000,-1000.000,405.762,-836.426,0
0.645,-691.406,-861.816,97.168,818.359,0
0.648,886.230,713.379,-922.363,-782.715,0
0.652,777.344,812.988,-841.309,-839.844,0
0.656,-929.199,-932.617,188.965,906.250,0
0.660,-1000.000,-1000.000,311.523,971.680,0
0.664,669.922,663.574,-702.637,-708.496,0
0.668,-992.676,989.746,-1000.000,-1000.000,0
0.672,-683.594,-643.066,-204.590,613.770,0
0.676,-1000.000,-1000.000,360.352,-817.871,0
0.680,531.250,271.973,-438.477,-324.219,0
0.684,-956.055,-960.449,-1000.000,-1000.000,0
0.687,-510.742,-438.477,-353.027,371.094,0
0.691,-1000.000,-1000.000,391.113,-773.438,0
0.695,-182.129,-582.520,-108.398,546.387,0
0.699,-913.574,922.852,-952.148,-980.957,0
0.703,123.047,227.539,-723.145,-323.730,0
0.707,-1000.000,-1000.000,197.754,-895.508,0
0.711,-806.152,-919.434,131.836,901.855,0
0.715,802.734,667.480,-834.961,-699.707,0
0.719,869.629,895.996,-908.203,-922.852,0
0.723,-864.746,-842.773,25.391,827.637,0
0.726,-1000.000,-1000.000,330.566,-979.492,0
0.730,677.734,607.910,-581.055,-669.434,0
0.734,997.559,983.398,-1000.000,-1000.000,0
0.738,-665.527,-624.023,-316.895,593.750,0
0.742,-1000.000,-1000.000,362.793,-791.992,0
0.746,396.973,46.387,-239.258,-93.750,0
0.750,-901.855,-952.637,-1000.000,-1000.000,0
0.754,-376.953,-308.594,-535.645,252.441,0
0.758,-1000.000,-1000.000,379.395,-779.785,0
0.762,-399.414,-701.172,86.426,642.090,0
0.765,-962.402,862.793,-907.715,-928.223,0
0.769,402.832,479.492,-813.477,-537.598,0
0.773,-1000.000,-1000.000,183.594,-957.031,0
0.777,-912.109,-952.148,345.215,925.293,0
0.781,715.820,662.598,-716.309,-696.777,0
0.785,952.148,958.984,-1000.000,-991.699,0
0.789,-791.504,-740.234,-54.688,711.426,0
0.793,-1000.000,-1000.000,342.773,-894.043,0
0.797,685.059,514.648,-579.590,-557.617,0
0.801,987.793,990.234,-1000.000,-1000.000,0
0.804,-647.949,-609.375,-281.250,588.379,0
0.808,-1000.000,-1000.000,386.719,-778.320,0
0.812,253.418,-30.273,-315.918,-74.219,0
0.816,-869.629,-912.109,-1000.000,-1000.000,0
0.820,-253.906,-186.035,-499.512,162.598,0
0.824,-1000.000,-1000.000,397.949,-807.129,0
0.828,-608.887,-795.898,46.875,734.863,0
0.832,957.031,789.551,-905.273,-859.375,0
0.836,677.246,687.988,-781.250,-744.629,0
0.840,-992.188,-1000.000,131.348,975.586,0
0.843,-980.469,-975.586,231.934,942.871,0
0.847,660.156,666.016,-727.539,-701.172,0
0.851,914.062,889.648,-989.746,-833.008,0
0.855,-728.516,-701.172,-105.469,701.172,0
0.859,-1000.000,-1000.000,358.398,-873.535,0
0.863,602.051,388.184,-523.926,-413.086,0
0.867,-995.605,-988.770,-1000.000,-1000.000,0
0.871,-604.492,-532.715,-378.418,476.074,0
0.875,-1000.000,-1000.000,392.090,-770.020,0
0.879,36.133,-440.430,-101.074,337.891,0
0.882,-883.789,968.262,-963.867,-1000.000,0
0.886,-99.609,28.320,-694.824,-97.168,0
0.890,-1000.000,-1000.000,247.559,-838.379,0
0.894,-765.625,-880.859,140.137,826.172,0
0.898,840.820,709.473,-869.141,-786.133,0
0.902,779.297,805.664,-901.855,-829.590,0
0.906,-942.383,-937.012,69.824,915.039,0
0.910,-714.355,-732.422,184.082,682.617,0
0.914,794.922,775.879,-726.074,-833.008,0
0.918,952.148,937.012,-1000.000,-968.750,0
0.921,-652.344,-615.234,-233.887,588.379,0
0.925,-1000.000,-1000.000,395.508,-806.152,0
0.929,484.863,228.516,-444.336,-312.012,0
0.933,-941.406,-958.984,-1000.000,-1000.000,0
0.937,-487.793,-419.434,-439.941,370.605,0
0.941,-1000.000,-1000.000,445.312,-772.949,0
0.945,-195.312,-614.258,-62.988,545.898,0
0.949,-905.762,911.133,-980.469,-980.957,0
0.953,225.098,290.039,-727.539,-323.730,0
0.957,-1000.000,-1000.000,194.336,-895.508,0
0.961,-851.562,-928.711,145.996,899.414,0
0.964,776.367,665.039,-855.469,-691.895,0
0.968,875.000,908.691,-902.344,-953.613,0
0.972,-866.211,-822.754,148.926,781.738,0
0.976,-1000.000,-1000.000,344.727,-945.312,0
0.980,678.223,586.426,-650.391,-629.883,0
0.984,995.117,982.422,-1000.000,-1000.000,0
0.988,-662.109,-619.141,-303.711,593.750,0
0.992,-1000.000,-1000.000,343.750,-791.016,0
0.996,365.723,-9.766,-321.777,-93.750,0
1.000,-889.648,-957.031,-1000.000,-1000.000,0
1.003,-342.285,-282.715,-526.855,252.930,0
1.007,-1000.000,-1000.000,332.520,-782.715,0
1.011,-449.707,-721.680,1.465,652.344,0
1.015,-979.004,847.168,-917.969,-919.434,0
1.019,463.867,538.086,-790.039,-560.547,0
1.023,-1000.000,-1000.000,157.227,-964.844,0
1.027,-942.871,-960.449,246.094,924.805,0
1.031,690.918,663.574,-732.422,-686.523,0
1.035,956.055,968.750,-984.375,-1000.000,0
1.039,-791.992,-719.727,-101.074,654.297,0
1.042,-1000.000,-1000.000,375.000,-876.953,0
1.046,685.059,490.234,-436.035,-542.480,0
1.050,987.793,983.398,-1000.000,-1000.000,0
1.054,-648.926,-592.773,-403.809,578.125,0
1.058,-1000.000,-1000.000,387.207,-778.809,0
1.062,249.023,-260.254,-152.344,121.582,0
1.066,-860.352,-993.164,-1000.000,-1000.000,0
1.070,-227.051,-130.859,-614.258,132.812,0
1.074,-1000.000,-1000.000,351.562,-804.199,0
1.078,-640.137,-809.570,61.523,774.902,0
1.081,935.547,768.555,-919.922,-797.363,0
1.085,684.082,712.402,-844.238,-820.312,0
1.089,-994.141,-1000.000,120.117,923.828,0
1.093,-979.980,-979.492,288.574,961.426,0
1.097,660.156,667.480,-689.453,-702.637,0
1.101,914.062,889.160,-993.652,-928.711,0
1.105,-728.516,-699.707,-71.777,659.668,0
1.109,-1000.000,-1000.000,389.648,-856.445,0
1.113,608.398,385.254,-526.855,-421.387,0
1.117,988.770,-994.629,-1000.000,-1000.000,0
1.120,-629.883,-541.504,-463.867,472.656,0
1.124,-1000.000,-1000.000,298.828,-782.715,0
1.128,27.344,-453.125,-105.957,472.168,0
1.132,-872.070,964.844,-951.660,-1000.000,0
1.136,-15.137,46.387,-728.027,-283.203,0
1.140,-1000.000,-1000.000,142.090,-893.066,0
1.144,-707.520,-872.559,78.125,899.414,0
1.148,895.508,707.520,-839.844,-696.777,0
1.152,774.902,823.730,-906.738,-927.246,0
1.156,-929.199,-921.875,-39.062,837.402,0
1.159,-1000.000,-1000.000,254.395,990.723,0
1.163,670.410,656.250,-620.117,-715.332,0
1.167,-995.117,987.793,-1000.000,-1000.000,0
1.171,-678.711,-637.207,-369.629,601.074,0
1.175,-1000.000,-1000.000,270.996,-802.246,0
1.179,496.094,223.633,-321.289,-179.688,0
1.183,-937.988,-963.379,-1000.000,-1000.000,0
1.187,-481.445,-428.711,-449.707,294.434,0
1.191,-1000.000,-1000.000,360.352,-786.133,0
1.195,-192.383,-593.750,35.156,642.578,0
1.198,-903.320,922.363,-879.395,-926.758,0
1.202,238.770,285.645,-806.152,-537.598,0
1.206,-1000.000,-1000.000,120.117,-957.520,0
1.210,-808.594,-924.805,302.246,926.758,0
1.214,826.172,672.852,-695.312,-698.242,0
1.218,864.258,899.902,-1000.000,-985.840,0
1.222,-863.770,-831.543,-129.883,742.188,0
1.226,-1000.000,-1000.000,289.062,-937.012,0
1.230,677.246,587.402,-594.727,-633.301,0
1.234,999.023,983.887,-1000.000,-1000.000,0
1.237,-670.410,-622.559,-359.375,584.961,0
1.241,-1000.000,-1000.000,312.500,-787.109,0
1.245,405.273,20.020,-219.727,62.012,0
1.249,-878.906,-945.312,-997.559,-1000.000,0
1.253,-323.730,-275.879,-591.797,137.695,0
1.257,-1000.000,-1000.000,319.824,-795.898,0
1.261,-405.273,-712.891,31.250,730.957,0
1.265,-958.496,856.934,-924.805,-859.375,0
1.269,458.496,538.086,-745.117,-744.629,0
1.273,-1000.000,-1000.000,252.441,965.820,0
1.276,-917.480,-960.449,209.961,953.125,0
1.280,724.609,663.574,-758.789,-698.242,0
1.284,950.195,969.727,-944.336,-1000.000,0
1.288,-791.504,-716.797,-177.734,635.742,0
1.292,-1000.000,-1000.000,288.574,-862.305,0
1.296,685.059,482.910,-521.484,-504.395,0
1.300,987.793,983.398,-1000.000,-1000.000,0
1.304,-649.414,-592.285,-416.992,541.504,0
1.308,-1000.000,-1000.000,279.785,-776.367,0
1.312,246.094,-270.020,-198.730,300.781,0
1.315,-854.004,-994.141,-991.211,-1000.000,0
1.319,-208.496,-141.113,-614.746,6.836,0
1.323,-1000.000,-1000.000,260.254,-805.176,0
1.327,-612.793,-817.383,72.266,802.734,0
1.331,954.102,752.441,-870.605,-774.902,0
1.335,700.195,749.023,-876.465,-842.773,0
1.339,-969.727,-976.074,55.176,906.250,0
1.343,-991.699,-991.699,311.035,972.168,0
1.347,664.062,671.387,-621.582,-706.055,0
1.351,-987.793,992.188,-1000.000,-1000.000,0
1.354,-693.359,-647.949,-248.535,625.000,0
1.358,-1000.000,-1000.000,341.797,-838.867,0
1.362,583.496,328.125,-467.285,-424.805,0
1.366,-953.613,-961.426,-1000.000,-1000.000,0
1.370,-546.387,-500.000,-435.547,482.910,0
1.374,-1000.000,-1000.000,385.742,-766.602,0
1.378,91.309,-238.770,-174.805,148.926,0
1.382,-831.543,-929.688,-1000.000,-1000.000,0
1.386,50.781,127.441,-642.090,-243.164,0
1.390,-1000.000,-1000.000,340.332,-925.293,0
1.393,-770.508,-910.156,131.348,910.645,0
1.397,839.844,685.059,-898.926,-698.242,0
1.401,849.609,877.930,-868.652,-926.758,0
1.405,-873.535,-866.699,155.273,837.402,0
1.409,-1000.000,-1000.000,327.148,990.723,0
1.413,676.270,634.766,-673.340,-714.844,0
1.417,999.023,983.398,-1000.000,-1000.000,0
1.421,-667.969,-627.441,-244.141,603.027,0
1.425,-1000.000,-1000.000,337.891,-802.734,0
1.429,423.340,103.027,-408.691,-215.332,0
1.432,-919.434,-958.008,-1000.000,-1000.000,0
1.436,-420.410,-356.934,-379.883,336.914,0
1.440,-1000.000,-1000.000,386.719,-790.039,0
1.444,-366.699,-671.875,-91.797,641.113,0
1.448,-960.449,879.395,-930.664,-925.293,0
1.452,284.668,397.949,-737.793,-538.086,0
1.456,-1000.000,-1000.000,148.926,-951.660,0
1.460,-875.000,-941.895,131.836,920.410,0
1.464,736.816,660.645,-812.012,-696.289,0
1.468,937.012,944.336,-921.387,-886.230,0
1.471,-805.176,-770.996,-36.621,776.367,0
1.475,-1000.000,-1000.000,312.500,-953.125,0
1.479,682.617,552.246,-545.410,-625.488,0
1.483,993.164,979.492,-1000.000,-1000.000,0
1.487,-656.738,-611.328,-379.883,583.496,0
1.491,-1000.000,-1000.000,350.586,-784.180,0
1.495,326.660,-125.000,-104.980,65.430,0
1.499,-886.719,-972.168,-965.820,-1000.000,0
1.503,-311.523,-226.074,-605.957,164.062,0
1.507,-1000.000,-1000.000,340.332,-794.434,0
1.510,-597.656,-765.137,85.938,729.004,0
1.514,958.496,809.570,-909.180,-863.281,0
1.518,546.387,624.512,-831.055,-738.281,0
1.522,-1000.000,-1000.000,127.441,963.867,0
1.526,-963.867,-971.680,215.820,853.516,0
1.530,650.391,664.551,-747.559,-731.934,0
1.534,-978.027,986.816,-1000.000,-1000.000,0
1.538,-709.473,-683.105,-74.707,625.977,0
1.542,-1000.000,-1000.000,403.320,-856.445,0
1.546,686.523,438.965,-557.129,-491.211,0
1.550,980.469,998.047,-1000.000,-1000.000,0
1.553,-634.277,-556.641,-337.402,522.949,0
1.557,-1000.000,-1000.000,379.395,-776.855,0
1.561,100.586,-382.812,-177.734,336.426,0
1.565,-883.301,979.980,-997.070,-1000.000,0
1.569,-179.688,-31.250,-541.016,-80.566,0
1.573,-1000.000,-1000.000,318.359,-833.008,0
1.577,-689.941,-856.445,48.340,815.918,0
1.581,887.695,720.215,-872.559,-781.738,0
1.585,757.812,793.457,-821.289,-840.332,0
1.589,-944.824,-948.242,78.613,906.250,0
1.592,-999.512,-1000.000,236.816,972.168,0
1.596,667.969,666.992,-686.035,-708.008,0
1.600,-991.211,990.234,-1000.000,-1000.000,0
1.604,-686.523,-644.043,-259.766,614.258,0
1.608,-1000.000,-1000.000,315.918,-819.336,0
1.612,550.293,284.180,-451.660,-335.938,0
1.616,-964.355,-966.309,-1000.000,-1000.000,0
1.620,-527.832,-455.078,-415.527,392.090,0
1.624,-1000.000,-1000.000,392.578,-775.879,0
1.628,-161.621,-567.871,-56.641,545.898,0
1.631,-911.133,927.734,-937.012,-979.980,0
1.635,100.586,206.055,-733.398,-323.730,0
1.639,-1000.000,-1000.000,186.523,-895.508,0
1.643,-789.551,-914.551,155.762,901.855,0
1.647,815.918,669.922,-833.496,-699.707,0
1.651,867.188,890.137,-943.848,-923.340,0
1.655,-863.770,-849.121,23.926,829.102,0
1.659,-1000.000,-1000.000,380.371,-983.398,0
1.663,677.734,610.352,-624.512,-675.781,0
1.667,998.535,983.398,-1000.000,-1000.000,0
1.670,-666.016,-624.023,-292.480,593.262,0
1.674,-1000.000,-1000.000,452.148,-791.504,0
1.678,412.109,58.105,-145.996,-94.727,0
1.682,-920.410,-960.449,-1000.000,-1000.000,0
1.686,-419.434,-333.984,-531.250,259.277,0
1.690,-1000.000,-1000.000,363.281,-780.273,0
1.694,-396.973,-697.266,-28.320,642.090,0
1.698,-965.332,861.328,-951.172,-927.734,0
1.702,391.602,452.148,-755.859,-537.598,0
1.706,-1000.000,-1000.000,189.941,-957.031,0
1.709,-889.648,-947.754,177.246,926.270,0
1.713,741.699,659.180,-797.363,-699.219,0
1.717,948.242,961.914,-965.332,-982.422,0
1.721,-791.016,-739.258,-74.707,726.562,0
1.725,-1000.000,-1000.000,321.289,-902.344,0
1.729,684.570,523.926,-582.031,-568.359,0
1.733,988.770,978.516,-1000.000,-1000.000,0
1.737,-649.902,-606.934,-334.961,578.613,0
1.741,-1000.000,-1000.000,333.008,-779.785,0
1.745,266.113,-193.359,-241.211,121.582,0
1.748,-870.605,-978.027,-997.070,-1000.000,0
1.752,-258.301,-166.504,-567.871,129.395,0
1.756,-1000.000,-1000.000,334.473,-791.504,0
1.760,-604.492,-785.645,53.711,729.492,0
1.764,958.984,794.922,-874.512,-859.375,0
1.768,634.766,669.922,-794.434,-744.629,0
1.772,-1000.000,-1000.000,67.383,965.820,0
1.776,-979.004,-979.004,249.512,953.125,0
1.780,657.715,667.480,-686.523,-699.707,0
1.784,-980.957,986.816,-1000.000,-1000.000,0
1.787,-706.055,-676.758,-220.215,625.488,0
1.791,-1000.000,-1000.000,341.309,-840.332,0
1.795,671.387,420.898,-364.258,-429.199,0
1.799,979.492,999.512,-1000.000,-1000.000,0
1.803,-630.859,-550.781,-473.145,476.074,0
1.807,-1000.000,-1000.000,312.500,-770.508,0
1.811,65.918,-409.180,-133.789,337.891,0
1.815,-889.160,971.191,-975.586,-1000.000,0
1.819,-153.320,-20.020,-712.891,-95.215,0
1.823,-1000.000,-1000.000,202.637,-844.238,0
1.826,-691.406,-858.398,69.824,842.285,0
1.830,886.719,717.285,-882.324,-739.258,0
1.834,773.438,801.270,-905.762,-890.625,0
1.838,-932.129,-942.871,44.434,865.723,0
1.842,-1000.000,-1000.000,324.219,982.422,0
1.846,668.457,663.574,-658.691,-711.426,0
1.850,-988.770,990.234,-1000.000,-1000.000,0
1.854,-693.359,-643.555,-232.422,611.816,0
1.858,-1000.000,-1000.000,305.176,-813.965,0
1.862,583.984,281.250,-454.102,-312.012,0
1.865,-962.891,-966.797,-1000.000,-1000.000,0
1.869,-528.809,-455.078,-501.465,371.094,0
1.873,-1000.000,-1000.000,320.801,-777.832,0
1.877,-130.371,-570.801,-42.480,562.012,0
1.881,-895.508,927.734,-929.688,-972.168,0
1.885,157.227,220.215,-761.719,-370.605,0
1.889,-1000.000,-1000.000,122.559,-909.668,0
1.893,-799.316,-914.551,114.258,904.785,0
1.897,820.312,676.270,-815.918,-690.430,0
1.901,865.234,881.348,-877.441,-973.145,0
1.904,-864.258,-856.445,-35.156,759.766,0
1.908,-1000.000,-1000.000,309.570,-940.918,0
1.912,677.246,606.445,-596.191,-631.348,0
1.916,999.023,982.910,-1000.000,-1000.000,0
1.920,-667.969,-622.559,-272.461,593.750,0
1.924,-1000.000,-1000.000,283.691,-790.527,0
1.928,416.504,42.480,-313.477,-93.262,0
1.932,-903.809,-956.543,-1000.000,-1000.000,0
1.936,-405.762,-333.496,-541.016,261.230,0
1.940,-1000.000,-1000.000,321.777,-797.363,0
1.943,-265.625,-588.379,17.578,592.285,0
1.947,-915.527,906.250,-894.043,-919.922,0
1.951,437.988,464.355,-831.543,-681.152,0
1.955,-1000.000,-1000.000,72.266,973.145,0
1.959,-904.297,-956.055,299.805,949.219,0
1.963,747.070,663.574,-692.383,-693.848,0
1.967,946.777,954.102,-1000.000,-1000.000,0
1.971,-791.016,-744.629,-161.133,641.113,0
1.975,-1000.000,-1000.000,402.344,-875.000,0
1.979,684.570,510.254,-448.730,-542.969,0
1.982,989.258,978.516,-1000.000,-1000.000,0
1.986,-651.367,-605.957,-415.039,577.148,0
1.990,-1000.000,-1000.000,304.688,-781.738,0
1.994,267.090,-203.125,-201.172,150.391,0
1.998,-861.816,-979.980,-997.070,-1000.000,0
2.002,-233.398,-162.109,-612.305,75.195,0
2.006,-1000.000,-1000.000,318.359,-815.918,0
2.010,-607.910,-784.180,19.043,790.527,0
2.014,959.961,794.922,-907.227,-788.574,0
2.018,676.758,688.965,-828.125,-834.473,0
2.021,-986.816,-1000.000,54.199,909.180,0
2.025,-986.816,-982.422,241.211,970.703,0
2.029,662.109,668.457,-691.895,-705.566,0
2.033,-985.840,987.793,-972.656,-1000.000,0
2.037,-696.777,-666.504,-209.961,625.488,0
2.041,-1000.000,-1000.000,298.828,-840.332,0
2.045,610.352,386.230,-501.465,-429.199,0
2.049,-981.934,-991.699,-1000.000,-1000.000,0
2.053,-578.613,-528.809,-401.367,476.074,0
2.057,-1000.000,-1000.000,307.617,-770.508,0
2.060,24.414,-483.398,-153.809,339.355,0
2.064,-866.699,954.102,-978.516,-1000.000,0
2.068,14.160,73.730,-694.336,-92.285,0
2.072,-1000.000,-1000.000,208.984,-853.516,0
2.076,-733.887,-884.766,111.328,873.047,0
2.080,876.953,693.848,-848.145,-692.871,0
2.084,779.297,840.820,-902.344,-919.434,0
2.088,-930.664,-907.227,24.414,846.680,0
2.092,-1000.000,-1000.000,313.477,988.281,0
2.096,670.898,650.391,-638.184,-712.891,0
2.099,-996.094,987.305,-1000.000,-1000.000,0
2.103,-677.246,-636.230,-305.176,611.816,0
2.107,-1000.000,-1000.000,389.160,-813.477,0
2.111,475.098,201.172,-182.617,-312.012,0
2.115,-916.992,-954.102,-1000.000,-1000.000,0
2.119,-438.477,-399.414,-517.578,372.070,0
2.123,-1000.000,-1000.000,393.066,-784.668,0
2.127,-214.844,-633.301,-24.414,599.609,0
2.131,-909.180,901.367,-958.984,-945.312,0
2.135,240.234,329.102,-727.051,-398.438,0
2.138,-1000.000,-1000.000,285.156,-913.574,0
2.142,-839.355,-933.594,296.387,906.250,0
2.146,791.992,666.504,-792.480,-687.988,0
2.150,871.582,913.574,-949.707,-988.770,0
2.154,-865.234,-811.523,51.758,742.188,0
2.158,-1000.000,-1000.000,325.684,-937.012,0
2.162,678.711,568.359,-632.324,-632.324,0
2.166,995.605,982.422,-1000.000,-1000.000,0
2.170,-662.598,-617.188,-340.820,592.773,0
2.174,-1000.000,-1000.000,313.477,-790.527,0
2.178,361.328,-42.480,-323.242,-78.613,0
2.181,-877.930,-957.031,-1000.000,-1000.000,0
2.185,-321.777,-257.324,-543.457,241.211,0
2.189,-1000.000,-1000.000,308.105,-798.828,0
2.193,-410.156,-732.422,-19.531,709.473,0
2.197,-959.961,839.355,-914.062,-871.094,0
2.201,455.566,570.801,-794.434,-712.402,0
2.205,-1000.000,-1000.000,101.562,977.051,0
2.209,-954.102,-964.844,195.312,948.242,0
2.213,669.434,664.062,-731.934,-694.824,0
2.217,977.051,975.586,-979.004,-1000.000,0
2.220,-768.555,-706.543,-126.465,641.113,0
2.224,-1000.000,-1000.000,342.285,-874.512,0
2.228,685.547,473.145,-514.160,-543.457,0
2.232,988.281,989.746,-1000.000,-1000.000,0
2.236,-649.414,-579.102,-418.457,573.730,0
2.240,-1000.000,-1000.000,355.469,-780.273,0
2.244,246.094,-300.781,-112.793,225.586,0
2.248,-854.980,-999.512,-979.492,-1000.000,0
2.252,-209.473,-120.117,-567.383,58.594,0
2.256,-1000.000,-1000.000,317.383,-807.129,0
2.259,-656.250,-824.219,190.918,801.270,0
2.263,934.570,756.348,-817.871,-782.227,0
2.267,680.176,737.793,-882.812,-833.008,0
2.271,-989.258,-979.004,101.074,907.227,0
2.275,-790.527,-795.410,182.129,775.879,0
2.279,738.281,746.582,-724.609,-781.738,0
2.283,979.004,959.961,-1000.000,-993.652,0
2.287,-677.246,-634.277,-190.430,607.910,0
2.291,-1000.000,-1000.000,424.316,-831.055,0
2.295,583.984,346.680,-503.906,-417.969,0
2.298,-960.938,-976.074,-1000.000,-1000.000,0
2.302,-537.109,-493.652,-388.672,469.238,0
2.306,-1000.000,-1000.000,353.027,-782.715,0
2.310,-48.828,-529.785,-104.492,528.809,0
2.314,-886.230,941.895,-964.355,-979.980,0
2.318,22.949,150.391,-637.695,-284.668,0
2.322,-1000.000,-1000.000,305.176,-886.230,0
2.326,-760.742,-899.414,111.816,896.973,0
2.330,837.402,683.594,-863.281,-695.801,0
2.334,840.820,869.141,-905.762,-927.246,0
2.337,-882.812,-876.465,-2.930,837.402,0
2.341,-1000.000,-1000.000,288.086,990.234,0
2.345,674.316,638.184,-637.207,-715.332,0
2.349,-996.582,985.352,-1000.000,-1000.000,0
2.353,-677.246,-630.371,-310.547,599.121,0
2.357,-1000.000,-1000.000,316.406,-796.875,0
2.361,474.609,135.742,-376.465,-183.105,0
2.365,-919.922,-956.543,-1000.000,-1000.000,0
2.369,-424.316,-368.652,-385.742,343.750,0
2.373,-1000.000,-1000.000,401.855,-787.598,0
2.376,-336.426,-667.480,-43.945,640.137,0
2.380,-951.172,881.348,-896.973,-924.805,0
2.384,256.348,381.348,-770.508,-537.598,0
2.388,-1000.000,-1000.000,90.332,-957.031,0
2.392,-872.070,-939.941,220.215,926.758,0
2.396,736.328,661.133,-731.934,-698.242,0
2.400,932.617,937.012,-994.629,-984.863,0
2.404,-811.035,-779.297,-55.176,745.117,0
2.408,-1000.000,-1000.000,388.184,-937.012,0
2.412,681.152,553.223,-576.172,-620.117,0
2.415,995.117,980.469,-1000.000,-910.156,0
2.419,-661.621,-612.305,-320.312,616.211,0
2.423,-1000.000,-1000.000,441.406,-799.316,0
2.427,356.445,-109.375,-184.082,85.449,0
2.431,-885.254,-969.727,-1000.000,-1000.000,0
2.435,-314.453,-232.910,-555.176,157.715,0
2.439,-1000.000,-1000.000,374.023,-793.945,0
2.443,-575.195,-762.207,-6.348,729.004,0
2.447,967.773,812.500,-941.406,-857.910,0
2.451,534.180,612.793,-809.082,-744.629,0
2.454,-1000.000,-1000.000,109.863,965.820,0
2.458,-962.891,-969.727,214.844,953.125,0
2.462,649.902,663.574,-766.602,-698.730,0
2.466,-977.539,986.816,-975.098,-1000.000,0
2.470,-709.961,-687.012,-24.414,631.348,0
2.474,-1000.000,-1000.000,340.332,-853.516,0
2.478,687.988,453.613,-568.359,-472.656,0
2.482,983.887,995.605,-1000.000,-1000.000,0
2.486,-640.625,-563.477,-366.211,511.230,0
2.490,-1000.000,-1000.000,367.676,-776.367,0
2.493,165.039,-359.375,-159.180,338.379,0
2.497,-866.699,988.770,-968.262,-1000.000,0
2.501,-206.543,-66.895,-629.395,-91.797,0
2.505,-1000.000,-1000.000,247.070,-838.379,0
2.509,-588.379,-746.582,35.645,718.750,0
2.513,930.176,765.625,-860.352,-816.895,0
2.517,696.777,745.605,-868.652,-823.730,0
2.521,-970.703,-962.891,-16.602,898.438,0
2.525,-992.188,-996.582,259.277,974.609,0
2.529,663.574,671.387,-620.605,-708.496,0
2.532,-987.793,992.676,-1000.000,-1000.000,0
2.536,-693.359,-648.926,-322.266,611.816,0
2.540,-1000.000,-1000.000,340.332,-813.965,0
2.544,583.008,332.031,-276.855,-312.012,0
2.548,-956.543,-971.191,-1000.000,-1000.000,0
2.552,-542.969,-481.934,-506.836,370.605,0
2.556,-1000.000,-1000.000,353.027,-773.438,0
2.560,23.438,-526.367,-65.430,545.898,0
2.564,-866.211,942.383,-951.660,-980.957,0
2.568,11.719,145.996,-758.789,-323.730,0
2.571,-1000.000,-1000.000,172.363,-895.508,0
2.575,-781.738,-906.250,277.832,901.855,0
2.579,833.984,684.570,-771.484,-705.566,0
2.583,801.758,849.121,-962.402,-913.086,0
2.587,-916.016,-888.672,-28.809,817.383,0
2.591,-907.715,-945.801,247.070,947.754,0
2.595,706.055,666.504,-630.859,-662.109,0
2.599,987.305,969.727,-1000.000,-1000.000,0
2.603,-669.434,-622.559,-244.141,585.938,0
2.607,-1000.000,-1000.000,387.695,-787.598,0
2.610,474.121,133.789,-357.910,-93.262,0
2.614,-916.504,-955.566,-1000.000,-1000.000,0
2.618,-428.711,-366.699,-471.680,252.930,0
2.622,-1000.000,-1000.000,327.148,-779.785,0
2.626,-271.484,-668.945,-45.410,642.090,0
2.630,-928.711,879.883,-908.203,-928.223,0
2.634,246.582,380.859,-803.223,-537.598,0
2.638,-1000.000,-1000.000,64.453,-956.543,0
2.642,-868.164,-939.941,172.363,922.363,0
2.646,739.746,660.645,-760.254,-687.012,0
2.649,939.453,941.895,-980.957,-1000.000,0
2.653,-801.758,-777.344,-160.156,663.574,0
2.657,-1000.000,-1000.000,288.086,-878.906,0
2.661,681.641,561.523,-541.504,-542.480,0
2.665,995.605,979.492,-1000.000,-1000.000,0
2.669,-662.598,-612.305,-400.879,578.125,0
2.673,-1000.000,-1000.000,322.266,-779.297,0
2.677,361.816,-116.699,-143.066,121.582,0
2.681,-883.789,-969.727,-939.453,-1000.000,0
2.685,-315.918,-226.074,-627.441,131.348,0
2.688,-1000.000,-1000.000,270.020,-797.363,0
2.692,-551.758,-765.625,95.703,753.906,0
2.696,978.516,809.570,-863.281,-832.520,0
2.700,551.270,619.629,-853.516,-750.000,0
2.704,-1000.000,-1000.000,33.691,967.285,0
2.708,-967.285,-970.703,337.891,953.613,0
2.712,651.367,665.039,-638.672,-699.707,0
2.716,-978.027,983.887,-1000.000,-1000.000,0
2.720,-709.961,-685.059,-230.469,625.488,0
2.724,-1000.000,-1000.000,299.805,-840.332,0
2.727,687.012,431.152,-524.902,-429.199,0
2.731,984.863,999.512,-1000.000,-1000.000,0
2.735,-626.953,-551.270,-411.621,476.074,0
2.739,-1000.000,-1000.000,341.797,-770.508,0
2.743,68.848,-418.457,-124.023,337.891,0
2.747,-858.887,978.027,-984.863,-1000.000,0
2.751,9.277,37.598,-638.184,-97.656,0
2.755,-1000.000,-1000.000,314.453,-836.426,0
2.759,-711.914,-870.117,84.473,818.359,0
2.763,897.949,714.355,-900.879,-782.715,0
2.767,774.414,810.059,-822.754,-839.844,0
2.770,-929.199,-935.059,145.020,906.250,0
2.774,-1000.000,-1000.000,279.297,971.680,0
2.778,668.945,661.133,-673.340,-708.496,0
2.782,-989.258,990.723,-995.605,-1000.000,0
2.786,-692.871,-644.531,-222.656,611.816,0
2.790,-1000.000,-1000.000,341.797,-813.965,0
2.794,562.500,272.461,-434.082,-312.012,0
2.798,-933.105,-952.148,-1000.000,-1000.000,0
2.802,-462.402,-421.875,-423.828,370.605,0
2.806,-1000.000,-1000.000,340.332,-772.949,0
2.809,-186.035,-593.262,-61.523,546.387,0
2.813,-909.180,917.969,-950.195,-980.957,0
2.817,159.180,232.910,-739.258,-324.219,0
2.821,-1000.000,-1000.000,171.875,-895.508,0
2.825,-797.363,-918.945,127.441,901.855,0
2.829,820.312,666.992,-836.914,-700.195,0
2.833,866.211,899.902,-929.199,-919.922,0
2.837,-863.770,-836.914,2.930,818.359,0
2.841,-1000.000,-1000.000,369.629,-953.125,0
2.845,678.223,601.074,-542.480,-628.418,0
2.848,996.094,982.422,-1000.000,-1000.000,0
2.852,-663.574,-621.094,-330.078,593.750,0
2.856,-1000.000,-1000.000,352.539,-790.527,0
2.860,378.906,21.484,-326.660,-93.750,0
2.864,-893.066,-957.520,-1000.000,-1000.000,0
2.868,-356.445,-303.711,-530.273,252.930,0
2.872,-1000.000,-1000.000,377.930,-779.785,0
2.876,-403.809,-699.707,43.945,642.090,0
2.880,-959.961,864.746,-935.059,-928.223,0
2.884,459.473,512.207,-763.184,-537.598,0
2.887,-1000.000,-1000.000,258.789,-956.543,0
2.891,-910.156,-957.520,227.051,923.828,0
2.895,734.375,664.551,-812.988,-691.406,0
2.899,948.730,959.473,-949.707,-1000.000,0
2.903,-791.016,-733.398,42.969,683.594,0
2.907,-1000.000,-1000.000,355.469,-881.836,0
2.911,684.570,497.559,-611.328,-541.992,0
2.915,988.770,979.980,-1000.000,-1000.000,0
2.919,-650.391,-605.957,-368.164,578.125,0
2.923,-1000.000,-1000.000,317.383,-778.809,0
2.926,255.371,-207.520,-268.555,121.582,0
2.930,-854.004,-975.098,-1000.000,-1000.000,0
2.934,-208.984,-134.277,-589.844,130.859,0
2.938,-1000.000,-1000.000,283.203,-796.875,0
2.942,-609.375,-793.945,13.184,750.488,0
2.946,960.938,788.574,-905.273,-833.496,0
2.950,676.758,704.102,-845.215,-765.625,0
2.954,-986.816,-996.094,81.055,954.590,0
2.958,-986.816,-984.863,284.668,957.031,0
2.962,662.109,669.434,-670.410,-700.684,0
2.965,-986.816,987.793,-1000.000,-1000.000,0
2.969,-694.336,-666.992,-159.668,625.488,0
2.973,-1000.000,-1000.000,347.168,-840.332,0
2.977,605.957,390.137,-444.824,-429.199,0
2.981,-994.141,-992.676,-1000.000,-1000.000,0
2.985,-599.609,-534.668,-467.773,476.074,0
2.989,-1000.000,-1000.000,333.008,-770.508,0
2.993,24.414,-444.824,-64.453,338.379,0
2.997,-867.188,972.168,-957.031,-1000.000,0
3.001,15.137,72.266,-715.820,-92.773,0
3.004,-1000.000,-1000.000,227.539,-851.562,0
3.008,-711.426,-878.906,137.695,867.676,0
3.012,897.949,706.055,-867.188,-705.566,0
3.016,774.414,826.172,-886.230,-897.461,0
3.020,-929.199,-918.945,67.871,865.234,0
3.024,-1000.000,-1000.000,317.383,983.398,0
3.028,670.410,653.809,-641.113,-711.426,0
3.032,-995.605,988.281,-1000.000,-1000.000,0
3.036,-677.734,-637.695,-257.324,611.816,0
3.040,-1000.000,-1000.000,387.207,-813.965,0
3.043,496.582,227.539,-415.527,-312.012,0
3.047,-940.918,-960.449,-1000.000,-1000.000,0
3.051,-502.930,-438.965,-461.914,382.812,0
3.055,-1000.000,-1000.000,323.242,-787.109,0
3.059,-92.285,-497.070,-104.492,410.645,0
3.063,-870.117,954.102,-955.566,-1000.000,0
3.067,222.656,262.695,-692.871,-425.781,0
3.071,-1000.000,-1000.000,195.312,-950.195,0
3.075,-811.035,-927.734,143.555,921.387,0
3.079,825.684,671.875,-810.059,-692.871,0
3.082,864.258,895.996,-889.160,-987.305,0
3.086,-863.770,-836.426,-13.672,742.188,0
3.090,-1000.000,-1000.000,266.602,-937.500,0
3.094,678.223,591.797,-608.887,-632.812,0
3.098,996.582,982.910,-1000.000,-1000.000,0
3.102,-664.062,-620.605,-374.023,588.379,0
3.106,-1000.000,-1000.000,292.480,-788.574,0
3.110,377.441,11.230,-299.805,-6.836,0
3.114,-888.184,-958.496,-1000.000,-1000.000,0
3.118,-345.215,-298.828,-573.242,194.336,0
3.121,-1000.000,-1000.000,312.012,-798.340,0
3.125,-404.297,-696.289,16.602,726.074,0
3.129,-959.961,868.164,-903.320,-859.375,0
3.133,460.449,507.812,-814.941,-744.141,0
3.137,-1000.000,-1000.000,56.641,965.820,0
3.141,-900.391,-957.031,266.113,953.125,0
3.145,747.070,664.062,-639.160,-697.266,0
3.149,946.777,959.961,-1000.000,-1000.000,0
3.153,-791.016,-732.910,-186.523,640.137,0
3.157,-1000.000,-1000.000,347.656,-872.070,0
3.160,684.570,499.023,-530.762,-538.086,0
3.164,988.770,979.004,-1000.000,-1000.000,0
3.168,-650.879,-605.469,-379.395,571.777,0
3.172,-1000.000,-1000.000,370.605,-784.668,0
3.176,257.812,-213.867,-206.543,272.949,0
3.180,-853.516,-979.492,-1000.000,-1000.000,0
3.184,-208.984,-143.066,-621.582,-53.223,0
3.188,-1000.000,-1000.000,365.723,-833.984,0
3.192,-609.375,-795.410,99.609,815.430,0
3.196,960.938,785.156,-902.832,-780.273,0
3.199,676.758,702.148,-834.961,-840.820,0
3.203,-986.816,-998.535,87.402,906.250,0
3.207,-986.816,-984.375,248.535,972.168,0
3.211,662.109,668.945,-676.758,-706.055,0
3.215,-986.328,989.258,-1000.000,-1000.000,0
3.219,-696.289,-663.574,-263.672,624.023,0
3.223,-1000.000,-1000.000,285.645,-837.891,0
3.227,602.051,380.859,-488.281,-421.875,0
3.231,-966.797,-986.328,-1000.000,-1000.000,0
3.235,-555.664,-518.555,-458.008,472.168,0
3.238,-1000.000,-1000.000,328.613,-779.785,0
3.242,24.414,-499.023,-97.656,463.867,0
3.246,-866.211,952.637,-948.730,-1000.000,0
3.250,13.672,123.535,-683.594,-250.977,0
3.254,-1000.000,-1000.000,250.977,-884.766,0
3.258,-739.258,-894.043,149.902,895.020,0
3.262,867.188,690.918,-835.449,-694.336,0
3.266,801.758,852.051,-815.430,-927.734,0
3.270,-912.109,-893.066,108.887,837.402,0
3.274,-1000.000,-1000.000,291.504,990.723,0
3.277,672.363,636.719,-655.762,-714.355,0
3.281,-996.582,987.305,-1000.000,-1000.000,0
3.285,-677.246,-634.277,-328.125,606.934,0
3.289,-1000.000,-1000.000,325.195,-807.617,0
3.293,474.121,172.852,-292.480,-265.625,0
3.297,-912.598,-946.289,-1000.000,-1000.000,0
3.301,-433.594,-371.582,-523.926,362.793,0
3.305,-1000.000,-1000.000,338.379,-791.504,0
3.309,-193.359,-642.090,-43.457,630.859,0
3.313,-901.367,898.926,-946.777,-930.664,0
3.316,234.375,370.117,-773.926,-521.484,0
3.320,-1000.000,-1000.000,185.059,-952.637,0
3.324,-869.141,-939.941,240.723,924.805,0
3.328,746.582,662.598,-795.410,-696.777,0
3.332,919.434,931.152,-979.492,-986.328,0
3.336,-828.613,-794.922,1.953,747.559,0
3.340,-1000.000,-1000.000,420.410,-943.359,0
3.344,678.711,561.523,-582.031,-631.348,0
3.348,895.996,880.859,-1000.000,-912.598,0
3.352,-696.289,-647.461,-219.727,620.117,0
3.356,-1000.000,-1000.000,418.457,-801.758,0
3.359,351.074,-101.074,-334.961,28.809,0
3.363,-882.324,-964.844,-1000.000,-1000.000,0
3.367,-314.453,-241.699,-492.188,196.777,0
3.371,-1000.000,-1000.000,344.727,-797.363,0
3.375,-568.359,-757.324,-35.645,728.027,0
3.379,970.703,816.406,-923.340,-856.445,0
3.383,499.023,597.656,-809.570,-745.117,0
3.387,-1000.000,-1000.000,95.703,970.703,0
3.391,-946.777,-960.938,189.453,946.777,0
3.395,650.391,660.645,-762.207,-695.312,0
3.398,922.852,886.719,-963.867,-936.523,0
3.402,-743.652,-725.098,-87.402,672.363,0
3.406,-1000.000,-1000.000,347.168,-884.766,0
3.410,680.176,459.961,-538.086,-520.020,0
3.414,986.816,996.094,-1000.000,-1000.000,0
3.418,-641.113,-567.383,-406.738,561.035,0
3.422,-1000.000,-1000.000,345.703,-780.762,0
3.426,165.527,-356.445,-91.797,333.008,0
3.430,-866.699,989.746,-975.098,-1000.000,0
3.434,-207.031,-67.383,-629.883,-41.016,0
3.437,-1000.000,-1000.000,345.703,-827.637,0
3.441,-589.844,-746.094,133.301,712.402,0
3.445,928.223,766.113,-840.820,-813.477,0
3.449,701.660,746.094,-888.672,-824.707,0
3.453,-967.285,-962.402,51.270,897.949,0
3.457,-993.164,-997.070,357.422,974.609,0
3.461,664.062,672.363,-665.527,-707.520,0
3.465,-987.793,992.188,-1000.000,-1000.000,0
3.469,-698.242,-652.832,-202.148,622.070,0
3.473,-1000.000,-1000.000,324.707,-830.078,0
3.476,582.031,315.918,-499.512,-354.004,0
3.480,939.453,933.105,-1000.000,-986.328,0
3.484,-571.289,-503.418,-429.199,439.941,0
3.488,-1000.000,-1000.000,345.703,-793.945,0
3.492,-53.711,-548.340,-80.566,553.711,0
3.496,-882.812,941.406,-980.469,-982.422,0
3.500,21.484,165.527,-668.457,-323.730,0
3.504,-1000.000,-1000.000,335.449,-895.508,0
3.508,-784.180,-907.227,81.055,901.855,0
3.512,817.383,677.246,-886.719,-699.219,0
3.515,839.355,869.141,-887.695,-924.805,0
3.519,-890.137,-875.488,-6.836,833.008,0
3.523,-1000.000,-1000.000,275.879,-995.117,0
3.527,683.594,635.742,-646.973,-698.242,0
3.531,993.164,979.980,-1000.000,-1000.000,0
3.535,-678.711,-632.324,-296.387,596.680,0
3.539,-946.289,-1000.000,254.395,-888.184,0
3.543,550.293,173.828,-358.887,-136.230,0
3.547,-953.613,-973.633,-980.469,-1000.000,0
3.551,-408.203,-346.191,-468.262,250.488,0
3.554,-1000.000,-1000.000,319.336,-777.344,0
3.558,-341.309,-670.898,-59.570,642.090,0
3.562,-952.637,876.953,-932.617,-928.223,0
3.566,257.324,364.746,-790.039,-537.598,0
3.570,-1000.000,-1000.000,112.305,-957.031,0
3.574,-871.582,-937.012,182.129,925.293,0
3.578,734.863,658.691,-776.367,-695.801,0
3.582,939.941,944.336,-971.191,-993.652,0
3.586,-812.500,-783.691,-77.148,721.191,0
3.590,-1000.000,-1000.000,336.426,-905.273,0
3.593,683.105,560.059,-566.895,-564.941,0
3.597,799.805,783.691,-1000.000,-723.633,0
3.601,-738.281,-687.988,-362.793,702.637,0
3.605,-1000.000,-1000.000,374.512,-831.543,0
3.609,345.703,-123.535,-47.363,145.020,0
3.613,-879.395,-967.285,-961.914,-1000.000,0
3.617,-314.941,-241.211,-648.926,129.395,0
3.621,-1000.000,-1000.000,297.363,-791.504,0
3.625,-565.430,-760.742,50.781,729.492,0
3.629,972.168,812.988,-914.551,-859.375,0
3.632,481.934,598.633,-828.613,-744.629,0
3.636,-1000.000,-1000.000,150.879,965.820,0
3.640,-955.078,-967.285,225.098,953.125,0
3.644,648.438,663.574,-764.648,-699.707,0
3.648,-984.863,984.375,-991.211,-1000.000,0
3.652,-721.191,-691.406,-65.430,625.488,0
3.656,-1000.000,-1000.000,354.004,-840.332,0
3.660,686.523,458.984,-535.156,-429.199,0
3.664,989.258,992.188,-1000.000,-1000.000,0
3.668,-649.414,-571.777,-450.684,476.074,0
3.671,-1000.000,-1000.000,283.203,-770.508,0
3.675,246.094,-334.961,-153.809,337.891,0
3.679,-855.469,992.676,-966.797,-1000.000,0
3.683,-209.961,-60.547,-694.336,-95.703,0
3.687,-1000.000,-1000.000,179.199,-843.262,0
3.691,-682.129,-846.680,54.688,839.844,0
3.695,901.855,731.934,-865.723,-749.512,0
3.699,709.961,762.207,-897.949,-863.281,0
3.703,-979.004,-970.703,-32.227,889.648,0
3.707,-989.258,-994.141,248.535,976.562,0
3.710,663.574,671.875,-624.512,-709.961,0
3.714,-987.793,991.211,-1000.000,-1000.000,0
3.718,-693.359,-645.996,-299.805,611.816,0
3.722,-1000.000,-1000.000,310.547,-813.477,0
3.726,584.473,309.570,-305.664,-312.012,0
3.730,-964.844,-974.609,-997.070,-1000.000,0
3.734,-531.250,-477.051,-543.457,370.605,0
3.738,-1000.000,-1000.000,308.105,-773.438,0
3.742,-124.023,-560.547,-12.695,545.898,0
3.746,-903.320,929.688,-936.035,-980.957,0
3.749,68.848,185.547,-763.672,-323.730,0
3.753,-1000.000,-1000.000,177.734,-895.508,0
3.757,-786.621,-909.668,132.324,901.855,0
3.761,813.965,672.852,-844.238,-704.590,0
3.765,867.676,885.742,-943.359,-916.992,0
3.769,-863.770,-852.539,-27.832,821.777,0
3.773,-1000.000,-1000.000,277.344,929.688,0
3.777,678.223,605.469,-633.301,-690.430,0
3.781,996.582,982.422,-1000.000,-998.047,0
3.785,-662.598,-622.070,-276.855,585.449,0
3.788,-1000.000,-1000.000,370.605,-789.062,0
3.792,383.301,33.203,-391.113,-93.262,0
3.796,-904.785,-960.449,-1000.000,-1000.000,0
3.800,-383.789,-318.359,-464.844,252.441,0
3.804,-1000.000,-1000.000,371.094,-779.785,0
3.808,-402.832,-698.242,-15.625,642.090,0
3.812,-961.426,864.258,-948.242,-928.223,0
3.816,457.031,485.840,-683.594,-537.598,0
3.820,-1000.000,-1000.000,369.141,-957.031,0
3.824,-899.902,-954.102,224.121,926.758,0
3.827,746.582,664.551,-813.965,-700.195,0
3.831,946.777,953.125,-976.074,-978.027,0
3.835,-791.016,-745.117,-101.562,724.121,0
3.839,-1000.000,-1000.000,307.617,-888.672,0
3.843,684.570,508.301,-585.938,-541.016,0
3.847,988.770,979.492,-1000.000,-1000.000,0
3.851,-650.879,-606.934,-378.418,577.637,0
3.855,-1000.000,-1000.000,325.684,-779.297,0
3.859,260.254,-198.730,-272.949,121.582,0
3.863,-857.422,-974.609,-1000.000,-1000.000,0
3.866,-219.727,-144.043,-583.008,129.395,0
3.870,-1000.000,-1000.000,330.566,-791.992,0
3.874,-608.887,-785.156,65.430,732.422,0
3.878,960.449,797.363,-895.020,-856.445,0
3.882,676.758,692.871,-848.145,-745.117,0
3.886,-986.816,-1000.000,84.473,965.820,0
3.890,-986.816,-983.398,299.316,953.125,0
3.894,662.109,669.434,-671.875,-699.707,0
3.898,-986.816,986.816,-1000.000,-1000.000,0
3.902,-698.242,-674.805,-175.781,630.859,0
3.905,-1000.000,-1000.000,390.137,-846.680,0
3.909,598.633,389.648,-474.121,-427.246,0
3.913,905.762,907.227,-1000.000,-964.844,0
3.917,-635.742,-570.312,-400.391,509.766,0
3.921,-1000.000,-1000.000,420.410,-786.621,0
3.925,18.555,-444.824,-106.934,346.191,0
3.929,-867.676,974.609,-1000.000,-1000.000,0
3.933,-6.836,49.316,-656.738,-95.215,0
3.937,-1000.000,-1000.000,301.758,-844.727,0
3.941,-708.496,-875.000,104.004,845.703,0
3.945,896.484,705.566,-890.137,-742.188,0
3.948,774.902,826.660,-866.699,-863.770,0
3.952,-929.199,-918.457,82.031,891.113,0
3.956,-1000.000,-1000.000,309.082,976.562,0
3.960,670.898,652.832,-666.992,-709.473,0
3.964,-996.094,987.305,-1000.000,-1000.000,0
3.968,-676.270,-637.207,-70.312,611.816,0
3.972,-1000.000,-1000.000,379.395,-813.965,0
3.976,482.422,217.773,-499.023,-312.012,0
3.980,-935.059,-961.426,-1000.000,-1000.000,0
3.984,-476.562,-421.387,-476.562,370.605,0
3.987,-1000.000,-1000.000,335.449,-772.949,0
3.991,-192.383,-603.027,-73.730,546.387,0
3.995,-903.320,919.434,-948.242,-980.957,0
3.999,238.281,311.035,-730.469,-323.730,0
4.003,-1000.000,-1000.000,188.477,-895.508,0
4.007,-815.918,-930.664,164.062,897.949,0
4.011,817.871,668.945,-787.109,-686.523,0
4.015,866.211,908.691,-946.289,-976.074,0
4.019,-864.258,-819.336,-78.613,757.812,0
4.023,-1000.000,-1000.000,337.402,-940.430,0
4.026,678.223,578.613,-540.039,-631.348,0
4.030,995.117,982.422,-1000.000,-1000.000,0
4.034,-662.109,-618.652,-367.188,593.750,0
4.038,-1000.000,-1000.000,340.332,-790.527,0
4.042,363.281,-16.113,-279.785,-93.750,0
4.046,-882.812,-958.008,-1000.000,-1000.000,0
4.050,-333.984,-280.762,-567.871,253.906,0
4.054,-1000.000,-1000.000,357.422,-788.574,0
4.058,-404.785,-716.309,30.762,671.875,0
4.062,-958.496,852.051,-939.453,-902.832,0
4.065,457.520,546.387,-799.805,-621.582,0
4.069,-1000.000,-1000.000,172.363,-988.281,0
4.073,-928.711,-961.914,220.215,934.570,0
4.077,710.449,663.574,-790.039,-689.941,0
4.081,952.637,971.191,-980.957,-1000.000,0
4.085,-791.504,-714.844,-32.715,647.949,0
4.089,-1000.000,-1000.000,364.746,-875.977,0
4.093,685.059,486.328,-566.895,-542.969,0
4.097,987.793,980.957,-1000.000,-1000.000,0
4.101,-649.414,-597.168,-295.410,578.125,0
4.104,-1000.000,-1000.000,400.879,-779.297,0
4.108,246.094,-263.672,-245.117,121.582,0
4.112,-854.492,-989.746,-1000.000,-1000.000,0
4.116,-208.984,-107.910,-514.160,133.789,0
4.120,-1000.000,-1000.000,370.117,-808.105,0
4.124,-633.301,-815.430,26.367,792.480,0
4.128,942.383,765.625,-898.438,-780.762,0
4.132,682.129,726.562,-854.492,-811.035,0
4.136,-988.281,-986.816,60.059,929.199,0
4.140,-986.328,-988.281,247.559,964.844,0
4.143,662.598,670.410,-708.984,-703.613,0
4.147,-987.305,990.234,-1000.000,-1000.000,0
4.151,-693.359,-659.180,-192.383,625.488,0
4.155,-1000.000,-1000.000,326.172,-840.332,0
4.159,584.473,368.652,-505.371,-429.688,0
4.163,-961.914,-980.957,-1000.000,-1000.000,0
4.167,-542.969,-507.812,-438.965,470.703,0
4.171,-1000.000,-1000.000,348.145,-774.902,0
4.175,-27.832,-505.859,-82.031,465.820,0
4.179,-880.371,948.242,-966.309,-992.676,0
4.182,20.508,112.305,-687.988,-148.926,0
4.186,-1000.000,-1000.000,260.254,-854.980,0
4.190,-754.883,-892.090,213.867,880.859,0
4.194,856.934,692.383,-780.762,-688.477,0
4.198,784.180,840.820,-932.129,-920.410,0
4.202,-932.129,-904.785,14.160,846.191,0
4.206,-1000.000,-1000.000,403.809,988.770,0
4.210,670.898,641.602,-606.445,-713.379,0
4.214,-996.094,986.328,-1000.000,-1000.000,0
4.218,-677.246,-633.789,-281.250,610.840,0
4.221,-1000.000,-1000.000,310.059,-812.988,0
4.225,474.609,171.387,-452.637,-304.199,0
4.229,-916.504,-952.637,-1000.000,-1000.000,0
4.233,-428.711,-382.812,-479.004,372.070,0
4.237,-1000.000,-1000.000,362.793,-791.016,0
4.241,-270.020,-645.996,-30.273,621.582,0
4.245,-928.223,895.020,-967.285,-935.059,0
4.249,246.094,360.352,-714.355,-479.980,0
4.253,-1000.000,-1000.000,350.098,-939.453,0
4.257,-872.070,-938.965,181.152,917.969,0
4.260,750.977,663.086,-847.656,-693.848,0
4.264,892.090,923.340,-936.035,-986.816,0
4.268,-853.027,-798.828,-65.918,742.188,0
4.272,-1000.000,-1000.000,309.570,-937.500,0
4.276,679.688,564.453,-597.656,-633.301,0
4.280,994.141,979.980,-1000.000,-1000.000,0
4.284,-659.668,-613.281,-327.637,584.961,0
4.288,-1000.000,-1000.000,358.398,-782.227,0
4.292,343.750,-91.797,-236.328,14.648,0
4.296,-886.230,-971.680,-988.770,-1000.000,0
4.299,-312.500,-251.953,-545.898,237.305,0
4.303,-1000.000,-1000.000,331.055,-794.922,0
4.307,-595.215,-754.395,2.441,724.121,0
4.311,959.473,817.871,-925.781,-854.980,0
4.315,487.305,582.031,-815.918,-713.867,0
4.319,-1000.000,-1000.000,89.355,979.492,0
4.323,-955.566,-964.844,236.816,947.754,0
4.327,651.367,662.109,-728.027,-695.312,0
4.331,-995.605,983.887,-1000.000,-1000.000,0
4.335,-734.863,-692.871,-95.215,637.695,0
4.338,-1000.000,-1000.000,394.043,-866.699,0
4.342,687.988,460.938,-411.133,-524.414,0
4.346,981.934,988.770,-1000.000,-1000.000,0
4.350,-637.695,-575.684,-428.711,565.430,0
4.354,-1000.000,-1000.000,374.023,-775.879,0
4.358,135.742,-336.914,-150.391,323.730,0
4.362,-878.418,986.328,-1000.000,-1000.000,0
4.366,-196.777,-88.379,-639.160,40.039,0
4.370,-1000.000,-1000.000,322.754,-808.105,0
4.374,-690.430,-838.867,94.727,801.270,0
4.377,897.461,737.793,-901.367,-773.438,0
4.381,694.824,746.582,-863.281,-842.285,0
4.385,-992.676,-979.980,123.047,906.250,0
4.389,-985.352,-991.211,282.715,972.168,0
4.393,662.598,671.387,-718.750,-708.008,0
4.397,-987.305,990.234,-1000.000,-1000.000,0
4.401,-692.871,-653.809,-133.301,613.770,0
4.405,-1000.000,-1000.000,360.352,-817.871,1
