timestamps,TP9,AF7,AF8,TP10,Marker0
0.003,682.129,534.180,-633.789,-477.539,420
0.007,996.094,984.375,-724.609,-1000.000,420
0.011,-665.527,-614.746,-597.168,566.406,420
0.015,-1000.000,-1000.000,-369.141,-763.672,420
0.019,345.215,-59.082,-558.105,201.660,420
0.023,-843.750,-946.289,-703.613,-1000.000,420
0.026,-222.656,-235.840,-620.117,218.262,420
0.030,-1000.000,-1000.000,-416.992,-791.504,420
0.034,-419.922,-774.902,-478.516,784.180,420
0.038,-957.031,804.688,-661.133,-780.762,420
0.042,649.902,635.742,-663.574,-571.289,420
0.046,-990.234,-1000.000,-449.707,-948.730,420
0.050,-927.734,-973.145,-409.668,926.758,420
0.054,743.164,666.992,-665.039,-706.055,420
0.058,-994.141,981.445,-708.496,-962.402,420
0.062,-709.473,-683.594,-551.270,690.918,420
0.066,-1000.000,-1000.000,-368.652,-812.500,420
0.069,668.457,420.898,-597.656,-346.680,420
0.073,-954.102,991.211,-732.910,-996.582,420
0.077,-563.965,-565.430,-542.480,546.875,420
0.081,-1000.000,-1000.000,-210.938,-766.602,420
0.085,225.098,-400.391,-523.438,506.836,420
0.089,-823.242,972.168,-755.371,-930.176,420
0.093,-7.324,-41.504,-607.422,76.660,420
0.097,-1000.000,-1000.000,-230.469,-797.363,420
0.101,-641.113,-865.723,-441.406,854.980,420
0.105,967.285,723.633,-744.141,-716.309,420
0.108,746.094,770.020,-629.395,-756.348,420
0.112,-932.617,-971.680,-470.703,975.586,420
0.116,-715.820,-712.402,-456.543,624.512,420
0.120,792.480,791.992,-654.785,-812.500,420
0.124,959.473,936.523,-630.859,-947.266,420
0.128,-671.875,-616.699,-533.203,558.105,420
0.132,-1000.000,-1000.000,-384.277,-766.113,420
0.136,564.941,263.184,-599.121,-129.395,420
0.140,-907.715,-971.680,-732.910,-1000.000,420
0.144,-452.148,-459.473,-603.027,438.965,420
0.147,-1000.000,-1000.000,-357.422,-768.555,420
0.151,5.859,-593.750,-538.574,606.934,420
0.155,-846.191,916.504,-717.773,-897.949,420
0.159,212.891,210.938,-623.535,-143.066,420
0.163,-1000.000,-1000.000,-376.953,-833.984,420
0.167,-759.766,-921.387,-482.910,873.047,420
0.171,864.746,663.574,-623.535,-691.406,420
0.175,884.766,881.348,-624.023,-900.879,420
0.179,-826.172,-857.422,-548.340,814.453,420
0.183,-1000.000,-1000.000,-424.316,-907.715,420
0.187,677.246,600.098,-634.766,-536.621,420
0.190,-996.582,982.422,-729.980,-1000.000,420
0.194,-680.176,-620.117,-583.496,572.754,420
0.198,-1000.000,-1000.000,-310.059,-763.184,420
0.202,456.543,21.484,-564.453,88.379,420
0.206,-871.094,-968.262,-749.512,-1000.000,420
0.210,-337.891,-330.078,-608.398,325.684,420
0.214,-1000.000,-1000.000,-258.301,-782.715,420
0.218,-215.332,-704.590,-405.762,732.910,420
0.222,-892.578,855.957,-732.910,-809.570,420
0.226,430.176,441.895,-678.711,-367.188,420
0.229,-1000.000,-1000.000,-310.059,-882.324,420
0.233,-900.391,-946.289,-385.254,896.973,420
0.237,733.398,662.598,-732.910,-693.359,420
0.241,993.164,948.242,-683.594,-953.613,420
0.245,-729.980,-750.977,-541.992,729.492,420
0.249,-1000.000,-1000.000,-416.016,-851.562,420
0.253,683.594,501.953,-643.555,-444.336,420
0.257,997.070,977.051,-708.008,-1000.000,420
0.261,-665.527,-602.539,-496.094,558.594,420
0.265,-1000.000,-1000.000,-295.898,-760.254,420
0.268,345.703,-235.840,-567.871,301.270,420
0.272,-849.121,-998.535,-706.055,-979.004,420
0.276,-217.285,-194.336,-596.680,205.566,420
0.280,-1000.000,-1000.000,-404.297,-794.922,420
0.284,-542.969,-797.363,-544.434,814.453,420
0.288,982.910,776.855,-705.078,-740.723,420
0.292,708.496,684.570,-647.461,-650.879,420
0.296,-948.242,-1000.000,-462.402,-978.516,420
0.300,-997.559,-980.469,-483.398,935.059,420
0.304,664.062,668.457,-641.602,-695.801,420
0.307,-980.957,987.305,-648.438,-1000.000,420
0.311,-711.914,-665.039,-573.242,619.141,420
0.315,-1000.000,-1000.000,-355.469,-800.781,420
0.319,669.922,381.836,-556.641,-348.633,420
0.323,-959.961,999.023,-719.727,-997.559,420
0.327,-554.688,-543.457,-586.426,546.875,420
0.331,-1000.000,-1000.000,-314.453,-766.602,420
0.335,138.184,-475.586,-557.129,506.836,420
0.339,-836.914,956.543,-745.117,-935.547,420
0.343,-4.883,3.418,-640.625,83.008,420
0.347,-1000.000,-1000.000,-356.445,-799.316,420
0.350,-610.352,-783.691,-419.922,754.395,420
0.354,917.969,720.703,-681.152,-728.027,420
0.358,823.242,805.176,-683.105,-795.410,420
0.362,-861.328,-919.434,-418.457,911.133,420
0.366,-1000.000,-1000.000,-180.176,-976.074,420
0.370,672.852,650.879,-600.586,-620.605,420
0.374,-989.258,985.840,-756.836,-1000.000,420
0.378,-695.312,-633.789,-530.762,588.867,420
0.382,-1000.000,-1000.000,-280.762,-775.391,420
0.386,566.895,195.312,-584.473,-128.906,420
0.389,-917.969,-969.238,-739.258,-1000.000,420
0.393,-438.477,-429.199,-550.781,441.406,420
0.397,-1000.000,-1000.000,-270.508,-778.320,420
0.401,-170.410,-629.395,-528.320,655.273,420
0.405,-891.113,900.879,-742.188,-853.516,420
0.409,313.477,277.344,-565.918,-153.809,420
0.413,-1000.000,-1000.000,-364.746,-830.566,420
0.417,-816.406,-927.734,-528.809,872.559,420
0.421,814.453,662.109,-705.078,-688.965,420
0.425,933.105,907.715,-614.258,-911.621,420
0.428,-787.109,-821.289,-506.348,805.176,420
0.432,-1000.000,-1000.000,-444.824,-905.273,420
0.436,679.688,572.266,-632.324,-537.109,420
0.440,-997.070,981.445,-712.402,-1000.000,420
0.444,-678.223,-615.234,-565.918,570.312,420
0.448,-1000.000,-1000.000,-273.926,-761.719,420
0.452,448.242,-44.922,-544.434,125.000,420
0.456,-880.859,-970.703,-634.277,-992.188,420
0.460,-325.684,-291.992,-521.973,322.754,420
0.464,-1000.000,-1000.000,-397.949,-793.945,420
0.467,-412.109,-734.863,-541.992,769.531,420
0.471,-961.426,833.008,-731.934,-782.715,420
0.475,610.352,522.461,-677.734,-509.766,420
0.479,-1000.000,-1000.000,-427.734,-927.734,420
0.483,-920.410,-956.543,-450.195,916.992,420
0.487,740.234,662.109,-691.895,-699.219,420
0.491,-993.652,970.215,-682.617,-969.727,420
0.495,-708.008,-712.891,-517.578,702.637,420
0.499,-1000.000,-1000.000,-259.766,-838.379,420
0.503,686.523,473.145,-559.570,-421.387,420
0.507,990.723,976.562,-751.465,-999.512,420
0.510,-652.832,-598.633,-556.152,552.246,420
0.514,-1000.000,-1000.000,-203.613,-768.555,420
0.518,255.859,-297.363,-518.066,473.145,420
0.522,-844.238,992.188,-771.973,-937.500,420
0.526,-144.531,-140.137,-624.023,101.074,420
0.530,-1000.000,-1000.000,-378.906,-799.316,420
0.534,-615.234,-829.102,-519.043,854.004,420
0.538,953.125,744.141,-709.961,-698.730,420
0.542,750.488,718.750,-636.230,-774.414,420
0.546,-929.199,-997.070,-324.707,971.680,420
0.549,-1000.000,-985.840,-323.242,955.078,420
0.553,666.992,669.434,-695.312,-703.613,420
0.557,-985.352,989.746,-686.035,-1000.000,420
0.561,-701.172,-653.320,-536.621,599.121,420
0.565,-1000.000,-1000.000,-364.258,-790.527,420
0.569,620.605,348.145,-604.004,-250.000,420
0.573,-961.426,-988.770,-721.680,-1000.000,420
0.577,-544.922,-517.578,-586.426,493.652,420
0.581,-1000.000,-1000.000,-363.770,-781.250,420
0.585,11.230,-533.203,-548.828,609.375,420
0.588,-853.027,934.570,-674.805,-896.973,420
0.592,170.898,101.562,-609.863,-143.066,420
0.596,-1000.000,-1000.000,-406.250,-833.496,420
0.600,-729.492,-903.320,-513.184,876.465,420
0.604,893.066,673.828,-712.891,-701.660,420
0.608,848.145,844.238,-669.922,-846.680,420
0.612,-858.887,-903.320,-503.906,889.648,420
0.616,-1000.000,-1000.000,-400.879,-970.215,420
0.620,675.781,635.254,-645.508,-624.512,420
0.624,-995.605,984.375,-721.680,-1000.000,420
0.628,-681.152,-628.418,-551.270,576.660,420
0.631,-1000.000,-1000.000,-241.211,-768.066,420
0.635,474.121,128.906,-535.645,57.129,420
0.639,-886.230,-961.914,-732.422,-1000.000,420
0.643,-372.070,-381.836,-589.355,335.938,420
0.647,-1000.000,-1000.000,-301.270,-777.344,420
0.651,-208.496,-665.039,-495.117,698.730,420
0.655,-892.578,881.348,-737.793,-846.680,420
0.659,434.570,362.305,-652.344,-359.375,420
0.663,-1000.000,-1000.000,-341.797,-884.277,420
0.667,-834.473,-938.477,-380.859,900.391,420
0.670,823.730,665.039,-692.871,-704.102,420
0.674,930.664,916.504,-710.938,-907.715,420
0.678,-787.109,-800.781,-426.758,791.016,420
0.682,-1000.000,-1000.000,-35.645,-881.348,420
0.686,682.129,541.992,-467.285,-484.863,420
0.690,996.094,979.980,-743.652,-1000.000,420
0.694,-665.039,-609.863,-543.457,560.547,420
0.698,-1000.000,-1000.000,-310.547,-762.207,420
0.702,347.168,-128.418,-590.332,301.270,420
0.706,-848.145,-979.980,-745.117,-978.027,420
0.709,-235.352,-245.117,-613.770,202.148,420
0.713,-1000.000,-1000.000,-381.836,-778.320,420
0.717,-412.598,-755.859,-541.504,774.902,420
0.721,-958.984,809.082,-721.191,-778.809,420
0.725,547.852,497.559,-624.512,-471.680,420
0.729,-1000.000,-1000.000,-372.070,-914.551,420
0.733,-933.594,-951.172,-432.617,910.645,420
0.737,706.543,657.227,-674.805,-697.266,420
0.741,-986.328,981.445,-588.379,-967.773,420
0.745,-709.473,-692.383,-525.391,695.312,420
0.748,-1000.000,-1000.000,-403.320,-823.242,420
0.752,679.688,439.453,-591.797,-377.441,420
0.756,-988.281,984.863,-721.680,-997.070,420
0.760,-617.188,-578.125,-606.934,548.828,420
0.764,-1000.000,-1000.000,-324.219,-768.066,420
0.768,225.586,-374.023,-525.391,506.836,420
0.772,-824.219,975.586,-710.938,-930.176,420
0.776,-7.324,-74.707,-634.766,76.172,420
0.780,-1000.000,-1000.000,-390.137,-797.363,420
0.784,-632.324,-854.980,-461.426,854.980,420
0.788,960.938,718.750,-702.637,-699.707,420
0.791,756.348,762.207,-707.520,-773.926,420
0.795,-923.340,-975.098,-456.543,970.215,420
0.799,-1000.000,-993.164,-346.191,959.473,420
0.803,668.457,672.852,-646.484,-697.754,420
0.807,-988.770,989.258,-732.910,-1000.000,420
0.811,-694.824,-642.578,-539.551,590.820,420
0.815,-1000.000,-1000.000,-202.148,-779.785,420
0.819,568.359,289.062,-528.809,-161.621,420
0.823,-917.480,-979.980,-754.395,-1000.000,420
0.827,-470.703,-482.910,-518.555,461.914,420
0.830,-1000.000,-1000.000,-125.977,-772.949,420
0.834,6.348,-578.613,-483.887,607.422,420
0.838,-846.680,917.969,-769.531,-897.461,420
0.842,212.402,166.016,-627.441,-143.066,420
0.846,-1000.000,-1000.000,-226.074,-833.496,420
0.850,-778.809,-917.480,-411.133,876.465,420
0.854,856.934,665.039,-750.488,-703.125,420
0.858,856.934,860.840,-648.926,-841.797,420
0.862,-861.328,-882.812,-494.141,877.930,420
0.866,-1000.000,-1000.000,-357.422,-938.965,420
0.869,675.781,612.305,-630.371,-564.941,420
0.873,-996.582,982.422,-651.367,-1000.000,420
0.877,-680.176,-621.582,-478.027,573.242,420
0.881,-1000.000,-1000.000,-309.082,-764.160,420
0.885,456.543,42.480,-578.613,87.402,420
0.889,-871.094,-972.656,-740.723,-1000.000,420
0.893,-338.379,-351.562,-612.305,327.637,420
0.897,-1000.000,-1000.000,-347.168,-774.414,420
0.901,-209.961,-695.312,-529.785,698.242,420
0.905,-890.625,861.816,-731.445,-846.680,420
0.909,430.664,426.758,-659.668,-359.375,420
0.912,-1000.000,-1000.000,-354.492,-884.277,420
0.916,-885.254,-945.312,-378.418,898.438,420
0.920,765.137,663.574,-611.816,-698.730,420
0.924,950.195,940.430,-648.926,-931.641,420
0.928,-779.785,-765.625,-552.246,753.418,420
0.932,-1000.000,-1000.000,-339.844,-856.934,420
0.936,682.617,518.066,-601.562,-443.359,420
0.940,996.094,978.027,-739.746,-1000.000,420
0.944,-665.527,-604.980,-584.961,558.594,420
0.948,-1000.000,-1000.000,-227.539,-760.254,420
0.951,345.215,-201.660,-509.766,301.270,420
0.955,-848.145,-993.652,-770.020,-978.516,420
0.959,-218.262,-212.891,-624.023,204.590,420
0.963,-1000.000,-1000.000,-283.203,-791.504,420
0.967,-520.996,-788.574,-464.355,804.688,420
0.971,-1000.000,787.598,-753.418,-751.953,420
0.975,661.133,647.949,-688.965,-610.352,420
0.979,-979.980,-1000.000,-295.898,-961.914,420
0.983,-988.770,-974.121,-159.180,927.246,420
0.987,660.645,666.992,-669.922,-691.406,420
0.990,-980.469,983.398,-727.539,-1000.000,420
0.994,-711.426,-674.316,-534.180,612.305,420
0.998,-1000.000,-1000.000,-335.449,-799.805,420
1.002,668.945,396.484,-610.352,-348.633,420
1.006,-956.055,991.211,-727.051,-998.047,420
1.010,-561.523,-559.082,-569.336,546.875,420
1.014,-1000.000,-1000.000,-307.129,-766.602,420
1.018,201.172,-446.777,-529.785,506.836,420
1.022,-829.102,959.473,-735.840,-930.176,420
1.026,-5.859,-10.254,-547.363,76.660,420
1.029,-1000.000,-1000.000,-343.750,-798.340,420
1.033,-700.195,-876.465,-521.973,853.516,420
1.037,907.715,696.777,-708.984,-691.895,420
1.041,774.902,802.246,-670.410,-825.195,420
1.045,-924.805,-944.336,-485.840,908.691,420
1.049,-1000.000,-1000.000,-424.316,-976.074,420
1.053,668.945,655.273,-618.652,-621.582,420
1.057,-988.770,986.816,-663.086,-1000.000,420
1.061,-695.312,-635.254,-571.777,588.867,420
1.065,-1000.000,-1000.000,-308.105,-775.391,420
1.069,566.406,215.332,-511.719,-128.906,420
1.072,-916.016,-976.074,-719.238,-1000.000,420
1.076,-441.406,-447.754,-627.930,440.918,420
1.080,-1000.000,-1000.000,-321.289,-777.832,420
1.084,-126.465,-618.164,-518.555,637.207,420
1.088,-883.301,904.785,-744.141,-881.836,420
1.092,229.492,234.863,-650.391,-223.145,420
1.096,-1000.000,-1000.000,-334.473,-853.027,420
1.100,-805.664,-922.852,-374.023,882.812,420
1.104,812.012,661.621,-695.312,-693.848,420
1.108,921.875,895.996,-699.219,-914.551,420
1.111,-801.270,-837.402,-450.195,800.781,420
1.115,-1000.000,-1000.000,-267.090,-904.785,420
1.119,680.176,583.984,-615.723,-537.109,420
1.123,-1000.000,980.957,-751.465,-1000.000,420
1.127,-672.363,-615.723,-538.086,572.266,420
1.131,-1000.000,-1000.000,-19.531,-763.184,420
1.135,414.551,-26.855,-451.172,88.379,420
1.139,-879.395,-979.492,-812.988,-1000.000,420
1.143,-324.219,-322.266,-587.402,327.637,420
1.147,-1000.000,-1000.000,-304.199,-791.504,420
1.150,-407.715,-719.238,-503.418,756.348,420
1.154,-959.961,845.215,-730.469,-791.504,420
1.158,514.160,493.652,-595.703,-448.242,420
1.162,-1000.000,-1000.000,-389.648,-907.715,420
1.166,-903.809,-953.125,-500.488,908.203,420
1.170,732.910,662.598,-714.355,-693.848,420
1.174,-990.723,961.426,-606.445,-973.145,420
1.178,-712.891,-732.910,-508.789,711.914,420
1.182,-1000.000,-1000.000,-409.180,-853.027,420
1.186,684.570,480.957,-614.746,-443.848,420
1.189,891.602,876.953,-736.328,-905.762,420
1.193,-686.523,-633.789,-558.594,591.309,420
1.197,-1000.000,-1000.000,-273.438,-776.855,420
1.201,257.812,-277.832,-545.410,337.891,420
1.205,-851.074,998.047,-648.438,-969.238,420
1.209,-209.473,-177.246,-572.754,203.125,420
1.213,-1000.000,-1000.000,-411.133,-804.199,420
1.217,-608.398,-816.406,-526.855,843.750,420
1.221,955.078,754.883,-729.004,-703.613,420
1.225,710.938,698.730,-684.570,-722.656,420
1.229,-959.961,-1000.000,-439.453,993.652,420
1.232,-994.141,-982.422,-400.879,945.801,420
1.236,663.086,668.457,-669.434,-698.730,420
1.240,-981.934,989.258,-696.289,-1000.000,420
1.244,-708.984,-657.715,-540.039,607.422,420
1.248,-1000.000,-1000.000,-248.047,-799.316,420
1.252,662.598,362.793,-548.340,-348.633,420
1.256,-969.727,-996.582,-772.949,-997.070,420
1.260,-546.387,-533.203,-582.031,548.340,420
1.264,-1000.000,-1000.000,-277.344,-774.902,420
1.268,65.918,-501.953,-520.508,558.105,420
1.271,-882.812,943.848,-749.512,-891.113,420
1.275,22.949,46.875,-638.184,63.965,420
1.279,-1000.000,-1000.000,-310.547,-794.434,420
1.283,-708.008,-895.020,-478.027,852.539,420
1.287,884.277,676.758,-728.516,-690.430,420
1.291,838.379,829.102,-657.227,-834.961,420
1.295,-870.605,-918.945,-380.371,901.367,420
1.299,-1000.000,-1000.000,-294.922,-973.633,420
1.303,674.316,641.602,-657.227,-622.559,420
1.307,-994.141,985.352,-700.195,-1000.000,420
1.310,-683.594,-630.859,-541.992,586.426,420
1.314,-1000.000,-1000.000,-305.176,-772.461,420
1.318,506.348,162.598,-579.102,-100.098,420
1.322,-915.039,-962.891,-733.887,-1000.000,420
1.326,-435.059,-402.832,-572.266,439.941,420
1.330,-1000.000,-1000.000,-313.965,-789.551,420
1.334,-200.195,-651.367,-524.902,693.359,420
1.338,-897.949,886.719,-679.688,-836.914,420
1.342,346.680,309.082,-580.078,-280.762,420
1.346,-1000.000,-1000.000,-392.578,-862.305,420
1.350,-820.312,-931.641,-502.930,889.160,420
1.353,816.895,663.574,-660.645,-697.266,420
1.357,932.617,908.691,-665.527,-913.086,420
1.361,-787.109,-812.988,-566.406,799.805,420
1.365,-1000.000,-1000.000,-388.672,-901.855,420
1.369,682.129,550.293,-626.953,-532.715,420
1.373,995.605,980.957,-742.676,-1000.000,420
1.377,-663.574,-611.816,-582.031,562.500,420
1.381,-1000.000,-1000.000,-222.168,-763.672,420
1.385,356.445,-94.727,-460.449,286.621,420
1.389,-867.188,-977.539,-723.145,-977.051,420
1.392,-291.504,-267.090,-618.164,216.797,420
1.396,-1000.000,-1000.000,-332.520,-784.668,420
1.400,-415.527,-752.441,-463.867,781.250,420
1.404,-960.449,817.383,-729.004,-780.273,420
1.408,648.926,559.082,-696.289,-570.801,420
1.412,-987.793,-1000.000,-369.629,-948.242,420
1.416,-936.035,-961.426,-375.488,926.758,420
1.420,732.422,663.086,-708.984,-705.078,420
1.424,-992.188,975.586,-719.238,-964.355,420
1.428,-708.008,-699.707,-473.633,694.824,420
1.431,-1000.000,-1000.000,-231.934,-821.777,420
1.435,687.012,449.707,-612.305,-372.559,420
1.439,989.258,978.516,-750.000,-997.070,420
1.443,-651.855,-591.309,-501.465,548.340,420
1.447,-1000.000,-1000.000,-259.766,-767.578,420
1.451,225.586,-346.680,-570.801,507.324,420
1.455,-825.195,984.863,-745.117,-930.176,420
1.459,-7.324,-83.008,-609.863,76.172,420
1.463,-1000.000,-1000.000,-358.398,-791.504,420
1.467,-625.488,-842.773,-518.555,848.633,420
1.470,959.473,725.098,-719.727,-698.242,420
1.474,656.738,650.879,-639.648,-672.852,420
1.478,-957.031,-1000.000,-395.020,-999.023,420
1.482,-988.770,-975.098,-363.281,952.148,420
1.486,666.016,668.457,-644.531,-677.246,420
1.490,-992.188,988.281,-620.117,-1000.000,420
1.494,-692.383,-643.066,-541.992,594.727,420
1.498,-999.512,-1000.000,-371.582,-820.801,420
1.502,610.840,346.680,-572.266,-213.867,420
1.506,-955.566,-996.582,-681.152,-1000.000,420
1.510,-504.883,-488.281,-591.797,456.543,420
1.513,-1000.000,-1000.000,-335.938,-773.926,420
1.517,7.324,-564.941,-513.672,608.398,420
1.521,-848.145,923.340,-729.004,-897.461,420
1.525,211.914,149.902,-639.160,-143.066,420
1.529,-1000.000,-1000.000,-364.746,-833.496,420
1.533,-786.133,-914.062,-438.477,876.465,420
1.537,850.098,666.992,-694.336,-701.660,420
1.541,858.887,856.934,-712.891,-846.680,420
1.545,-867.188,-895.508,-482.422,895.020,420
1.549,-1000.000,-1000.000,-294.434,-976.562,420
1.552,673.828,622.559,-620.117,-623.047,420
1.556,903.809,882.812,-740.723,-906.738,420
1.560,-713.867,-658.203,-532.715,608.398,420
1.564,-1000.000,-1000.000,-178.711,-782.715,420
1.568,448.730,63.477,-508.301,96.191,420
1.572,-868.164,-962.891,-752.441,-1000.000,420
1.576,-338.379,-355.469,-565.918,323.242,420
1.580,-1000.000,-1000.000,-170.410,-774.414,420
1.584,-210.449,-689.453,-484.375,698.242,420
1.588,-890.625,863.281,-776.855,-847.168,420
1.591,429.199,390.625,-643.555,-359.375,420
1.595,-1000.000,-1000.000,-369.629,-884.277,420
1.599,-905.273,-941.406,-462.891,900.391,420
1.603,751.953,669.434,-727.051,-710.449,420
1.607,940.430,921.387,-669.434,-898.926,420
1.611,-789.062,-780.273,-387.695,784.668,420
1.615,-937.500,-1000.000,-227.539,-968.750,420
1.619,716.309,553.711,-620.605,-490.234,420
1.623,979.980,961.914,-683.105,-989.746,420
1.627,-657.227,-597.168,-484.863,551.270,420
1.630,-1000.000,-1000.000,-285.156,-758.301,420
1.634,345.703,-195.801,-580.566,301.270,420
1.638,-849.121,-994.141,-754.883,-978.027,420
1.642,-217.285,-219.238,-631.836,202.148,420
1.646,-1000.000,-1000.000,-384.766,-783.203,420
1.650,-543.945,-790.039,-535.645,781.738,420
1.654,989.746,785.156,-740.234,-780.762,420
1.658,665.527,638.672,-680.176,-571.289,420
1.662,-981.445,-1000.000,-367.676,-948.242,420
1.666,-988.281,-972.656,-330.078,925.781,420
1.670,660.645,666.992,-597.656,-704.102,420
1.673,-980.469,980.469,-649.902,-969.238,420
1.677,-711.426,-678.711,-552.734,681.641,420
1.681,-1000.000,-1000.000,-305.176,-811.523,420
1.685,669.922,398.926,-508.789,-347.168,420
1.689,-960.449,991.211,-740.234,-996.582,420
1.693,-563.477,-559.082,-613.281,546.875,420
1.697,-1000.000,-1000.000,-254.883,-766.602,420
1.701,179.199,-445.801,-537.598,506.836,420
1.705,-833.496,958.008,-756.348,-930.176,420
1.709,-3.418,-18.066,-631.348,76.172,420
1.712,-1000.000,-1000.000,-280.273,-797.363,420
1.716,-696.777,-872.559,-395.020,854.492,420
1.720,920.898,709.473,-748.047,-709.961,420
1.724,760.254,790.039,-686.523,-764.160,420
1.728,-929.688,-947.266,-421.875,948.730,420
1.732,-808.105,-816.895,-391.113,816.895,420
1.736,744.141,733.398,-662.109,-693.359,420
1.740,977.539,953.125,-703.125,-985.840,420
1.744,-679.688,-619.141,-525.391,572.754,420
1.748,-1000.000,-1000.000,-262.207,-770.020,420
1.751,565.918,217.285,-576.660,-128.906,420
1.755,-914.551,-977.539,-720.215,-1000.000,420
1.759,-442.871,-450.684,-577.637,440.430,420
1.763,-1000.000,-1000.000,-320.312,-777.344,420
1.767,-104.980,-616.211,-521.973,637.207,420
1.771,-876.953,904.785,-722.656,-879.395,420
1.775,226.562,227.051,-546.387,-207.520,420
1.779,-1000.000,-1000.000,-290.039,-848.633,420
1.783,-809.082,-922.363,-494.141,880.859,420
1.787,822.266,663.574,-730.469,-692.383,420
1.791,878.906,885.254,-682.617,-914.551,420
1.794,-848.145,-846.680,-508.789,800.781,420
1.798,-1000.000,-1000.000,-380.371,-904.297,420
1.802,677.246,577.637,-614.746,-537.109,420
1.806,-998.535,981.934,-708.984,-1000.000,420
1.810,-675.293,-616.699,-580.078,572.266,420
1.814,-1000.000,-1000.000,-307.129,-763.184,420
1.818,432.617,-21.484,-497.070,88.379,420
1.822,-879.883,-973.633,-677.246,-1000.000,420
1.826,-324.707,-313.477,-639.160,328.613,420
1.830,-1000.000,-1000.000,-346.191,-796.387,420
1.833,-405.273,-719.727,-516.113,765.137,420
1.837,-958.496,844.238,-747.559,-791.016,420
1.841,460.449,475.586,-677.246,-535.156,420
1.845,-1000.000,-1000.000,-373.047,-937.988,420
1.849,-894.531,-950.195,-331.055,921.387,420
1.853,728.516,661.133,-652.344,-700.684,420
1.857,-990.234,960.938,-714.844,-970.703,420
1.861,-708.008,-728.516,-507.812,706.543,420
1.865,-1000.000,-1000.000,-130.859,-847.168,420
1.869,687.012,482.422,-541.992,-445.801,420
1.872,989.258,976.562,-799.805,-1000.000,420
1.876,-649.414,-599.609,-539.062,556.641,420
1.880,-1000.000,-1000.000,-100.098,-762.207,420
1.884,246.094,-271.484,-500.000,356.934,420
1.888,-854.004,993.652,-788.086,-958.984,420
1.892,-208.496,-181.152,-603.027,188.965,420
1.896,-1000.000,-1000.000,-330.078,-804.688,420
1.900,-607.910,-815.430,-493.652,849.121,420
1.904,951.660,753.906,-742.676,-699.219,420
1.908,731.934,712.402,-601.074,-769.043,420
1.911,-944.336,-999.512,-394.043,973.633,420
1.915,-999.023,-984.863,-449.219,954.102,420
1.919,666.016,669.922,-685.547,-702.148,420
1.923,-985.840,988.770,-651.367,-1000.000,420
1.927,-699.219,-656.738,-538.574,607.422,420
1.931,-1000.000,-1000.000,-321.289,-799.316,420
1.935,612.793,358.398,-576.660,-348.633,420
1.939,-960.449,-997.559,-753.418,-997.070,420
1.943,-543.457,-534.668,-565.918,549.805,420
1.947,-1000.000,-1000.000,-216.309,-783.203,420
1.951,23.926,-508.301,-493.164,570.312,420
1.954,-864.746,942.871,-652.832,-910.156,420
1.958,25.391,64.941,-589.844,-62.500,420
1.962,-1000.000,-1000.000,-384.277,-820.801,420
1.966,-709.473,-897.461,-480.469,867.676,420
1.970,884.277,677.246,-708.984,-696.777,420
1.974,842.773,832.520,-688.477,-848.145,420
1.978,-866.211,-914.551,-480.469,889.648,420
1.982,-1000.000,-1000.000,-322.754,-970.703,420
1.986,675.293,636.719,-636.230,-624.023,420
1.990,-996.582,984.863,-727.051,-1000.000,420
1.993,-677.246,-628.418,-546.387,582.031,420
1.997,-1000.000,-1000.000,-212.891,-769.043,420
2.001,474.121,141.113,-529.297,-47.852,420
2.005,-912.598,-969.238,-769.043,-992.676,420
2.009,-434.570,-403.809,-603.027,425.781,420
2.013,-1000.000,-1000.000,-226.074,-787.109,420
2.017,-203.613,-657.715,-479.980,687.500,420
2.021,-895.996,883.301,-775.879,-854.004,420
2.025,401.855,337.891,-643.555,-354.004,420
2.029,-1000.000,-1000.000,-278.320,-884.277,420
2.032,-829.102,-935.547,-418.457,899.902,420
2.036,821.289,664.062,-720.703,-702.637,420
2.040,931.641,913.574,-666.992,-911.621,420
2.044,-787.109,-805.176,-390.625,799.805,420
2.048,-1000.000,-1000.000,-198.730,-902.344,420
2.052,682.129,544.922,-627.441,-532.715,420
2.056,996.094,979.980,-743.164,-1000.000,420
2.060,-662.598,-609.375,-558.594,562.988,420
2.064,-1000.000,-1000.000,-278.320,-760.742,420
2.068,359.863,-125.488,-569.824,252.930,420
2.071,-875.000,-987.793,-729.492,-965.820,420
2.075,-314.941,-264.648,-567.871,267.090,420
2.079,-1000.000,-1000.000,-340.332,-788.574,420
2.083,-414.551,-761.719,-512.207,779.785,420
2.087,-961.426,808.594,-695.801,-778.320,420
2.091,645.508,575.195,-570.312,-571.289,420
2.095,-976.562,-1000.000,-316.406,-948.242,420
2.099,-975.098,-963.867,-445.312,926.758,420
2.103,681.641,663.574,-698.730,-704.590,420
2.107,-983.887,977.051,-692.871,-965.820,420
2.111,-709.473,-695.312,-570.312,697.754,420
2.114,-1000.000,-1000.000,-338.867,-827.148,420
2.118,684.570,439.941,-604.980,-389.160,420
2.122,996.582,983.887,-740.234,-997.559,420
2.126,-640.137,-579.590,-582.520,549.316,420
2.130,-1000.000,-1000.000,-204.102,-767.578,420
2.134,229.492,-373.047,-439.453,505.371,420
2.138,-830.566,973.633,-733.398,-926.270,420
2.142,-45.898,-83.008,-626.953,87.402,420
2.146,-1000.000,-1000.000,-323.730,-796.875,420
2.150,-647.949,-854.980,-488.281,854.492,420
2.153,942.871,717.773,-738.770,-699.707,420
2.157,761.230,763.672,-714.355,-772.461,420
2.161,-924.805,-974.121,-390.137,966.309,420
2.165,-1000.000,-994.141,-146.484,970.215,420
2.169,668.457,671.875,-631.836,-681.152,420
2.173,-988.770,988.770,-767.090,-1000.000,420
2.177,-694.336,-641.113,-513.184,589.844,420
2.181,-1000.000,-1000.000,-247.559,-777.344,420
2.185,573.242,280.273,-589.355,-152.344,420
2.189,-929.199,-982.422,-763.672,-998.535,420
2.192,-493.164,-484.375,-532.715,467.285,420
2.196,-1000.000,-1000.000,-263.672,-772.949,420
2.200,6.836,-577.637,-544.434,607.422,420
2.204,-847.656,917.969,-729.492,-896.973,420
2.208,210.938,162.109,-582.031,-143.066,420
2.212,-1000.000,-1000.000,-344.238,-828.125,420
2.216,-801.758,-910.645,-495.117,870.605,420
2.220,833.496,667.969,-707.520,-706.543,420
2.224,757.324,757.324,-651.367,-735.840,420
2.228,-895.508,-912.109,-470.703,910.156,420
2.232,-905.273,-945.801,-351.562,944.824,420
2.235,701.660,636.719,-611.816,-591.309,420
2.239,989.746,968.750,-626.465,-997.559,420
2.243,-671.875,-613.281,-533.691,564.941,420
2.247,-1000.000,-1000.000,-307.129,-761.719,420
2.251,457.520,38.086,-555.664,88.379,420
2.255,-878.418,-973.145,-762.207,-1000.000,420
2.259,-329.590,-349.609,-612.305,323.242,420
2.263,-1000.000,-1000.000,-238.770,-773.926,420
2.267,-350.586,-700.684,-449.707,698.730,420
2.271,-939.453,855.469,-720.703,-847.168,420
2.274,451.660,410.645,-649.414,-359.375,420
2.278,-1000.000,-1000.000,-398.438,-884.277,420
2.282,-901.855,-942.871,-388.184,900.391,420
2.286,747.070,663.086,-672.852,-705.566,420
2.290,946.777,937.012,-732.422,-903.809,420
2.294,-791.016,-767.090,-528.809,783.691,420
2.298,-1000.000,-1000.000,-272.949,-863.281,420
2.302,682.129,508.789,-597.168,-442.383,420
2.306,996.094,977.539,-763.672,-1000.000,420
2.310,-665.527,-603.516,-552.734,558.594,420
2.313,-1000.000,-1000.000,-188.477,-759.766,420
2.317,345.703,-220.703,-502.441,301.270,420
2.321,-852.051,-995.117,-754.883,-978.516,420
2.325,-214.844,-199.707,-591.309,203.613,420
2.329,-1000.000,-1000.000,-125.977,-788.086,420
2.333,-609.375,-796.875,-408.691,798.340,420
2.337,960.938,779.297,-784.668,-758.789,420
2.341,676.270,644.531,-641.113,-574.707,420
2.345,-986.816,-1000.000,-305.176,-947.266,420
2.349,-986.816,-973.145,-345.703,923.340,420
2.352,666.016,666.504,-711.914,-700.195,420
2.356,-986.816,982.910,-704.590,-994.629,420
2.360,-709.961,-672.363,-553.711,638.672,420
2.364,-945.801,-1000.000,-314.941,-904.297,420
2.368,704.102,386.230,-581.543,-381.836,420
2.372,-978.027,995.605,-721.191,-981.445,420
2.376,-543.457,-549.316,-563.477,539.062,420
2.380,-1000.000,-1000.000,-244.629,-763.672,420
2.384,104.004,-468.750,-527.832,506.836,420
2.388,-849.121,953.125,-693.848,-930.176,420
2.392,5.859,2.930,-589.844,76.660,420
2.395,-1000.000,-1000.000,-384.766,-797.852,420
2.399,-711.426,-877.930,-498.047,854.004,420
2.403,892.090,693.359,-729.004,-694.336,420
2.407,802.246,814.941,-693.848,-809.082,420
2.411,-903.809,-932.129,-425.781,921.387,420
2.415,-1000.000,-1000.000,-275.391,-979.492,420
2.419,671.387,651.855,-571.289,-620.117,420
2.423,-991.699,985.840,-699.707,-1000.000,420
2.427,-687.988,-632.812,-588.867,588.867,420
2.431,-1000.000,-1000.000,-276.367,-774.902,420
2.434,529.297,192.871,-510.742,-128.906,420
2.438,-916.992,-976.562,-736.328,-1000.000,420
2.442,-435.059,-439.453,-623.535,440.430,420
2.446,-1000.000,-1000.000,-247.070,-772.949,420
2.450,-193.359,-626.465,-481.934,628.418,420
2.454,-901.855,898.438,-761.719,-877.930,420
2.458,238.770,239.746,-654.785,-147.949,420
2.462,-1000.000,-1000.000,-273.438,-832.520,420
2.466,-806.152,-923.340,-321.777,873.047,420
2.470,817.871,662.598,-729.980,-691.406,420
2.473,897.949,892.578,-713.379,-899.414,420
2.477,-827.637,-836.426,-421.387,815.918,420
2.481,-1000.000,-1000.000,-292.480,-908.203,420
2.485,679.688,567.383,-648.438,-536.133,420
2.489,997.070,980.957,-739.746,-1000.000,420
2.493,-665.527,-614.258,-550.781,572.266,420
2.497,-1000.000,-1000.000,-197.754,-763.184,420
2.501,378.418,-52.246,-545.410,90.820,420
2.505,-878.418,-976.074,-736.328,-1000.000,420
2.509,-322.754,-299.805,-517.090,327.637,420
2.513,-1000.000,-1000.000,-311.523,-794.434,420
2.516,-406.738,-733.398,-519.531,759.277,420
2.520,-958.984,832.520,-720.703,-795.410,420
2.524,493.652,507.324,-657.715,-513.184,420
2.528,-1000.000,-1000.000,-387.207,-930.664,420
2.532,-901.367,-955.078,-445.312,918.457,420
2.536,734.863,664.551,-703.613,-698.730,420
2.540,997.559,958.496,-692.871,-971.680,420
2.544,-723.633,-724.121,-551.758,706.543,420
2.548,-1000.000,-1000.000,-342.773,-846.680,420
2.552,686.523,458.984,-586.426,-445.801,420
2.555,989.258,976.562,-717.285,-1000.000,420
2.559,-649.414,-597.656,-567.383,557.617,420
2.563,-1000.000,-1000.000,-243.164,-764.648,420
2.567,246.094,-306.641,-462.891,351.074,420
2.571,-854.004,987.305,-728.027,-973.633,420
2.575,-208.496,-144.531,-655.762,162.598,420
2.579,-1000.000,-1000.000,-345.215,-807.617,420
2.583,-608.398,-833.008,-418.457,854.492,420
2.587,953.125,738.281,-687.012,-696.289,420
2.591,722.656,718.262,-717.285,-774.414,420
2.594,-951.172,-998.535,-380.371,971.680,420
2.598,-996.582,-985.352,-152.832,955.078,420
2.602,665.527,669.434,-540.039,-702.637,420
2.606,-987.305,989.746,-744.629,-1000.000,420
2.610,-695.801,-653.809,-531.738,607.910,420
2.614,-1000.000,-1000.000,-107.910,-799.805,420
2.618,595.703,346.680,-534.180,-347.168,420
2.622,-958.008,-986.328,-824.219,-1000.000,420
2.626,-543.945,-513.184,-565.430,543.457,420
2.630,-1000.000,-1000.000,-67.871,-788.574,420
2.633,19.043,-537.109,-455.078,603.516,420
2.637,-860.352,931.152,-790.527,-890.137,420
2.641,79.590,94.727,-620.605,-91.797,420
2.645,-1000.000,-1000.000,-337.891,-823.242,420
2.649,-723.633,-903.320,-488.770,870.117,420
2.653,880.371,672.363,-749.023,-698.242,420
2.657,851.074,843.750,-639.648,-847.656,420
2.661,-859.375,-903.809,-471.680,889.648,420
2.665,-1000.000,-1000.000,-402.344,-970.703,420
2.669,675.781,632.812,-654.785,-624.512,420
2.673,-996.582,983.398,-641.602,-1000.000,420
2.676,-678.223,-626.953,-512.207,579.590,420
2.680,-1000.000,-1000.000,-286.133,-770.996,420
2.684,469.238,111.328,-557.617,19.043,420
2.688,-901.855,-967.285,-754.395,-1000.000,420
2.692,-410.156,-381.348,-599.609,346.680,420
2.696,-1000.000,-1000.000,-283.203,-780.273,420
2.700,-204.590,-674.805,-487.793,699.707,420
2.704,-895.020,871.094,-719.727,-846.191,420
2.708,397.461,352.051,-651.855,-359.375,420
2.712,-1000.000,-1000.000,-379.395,-884.766,420
2.715,-876.465,-937.012,-434.570,900.391,420
2.719,769.531,665.039,-626.953,-705.078,420
2.723,941.895,914.062,-663.574,-905.762,420
2.727,-789.551,-801.758,-539.062,792.480,420
2.731,-1000.000,-1000.000,-298.828,-878.418,420
2.735,682.129,534.180,-608.887,-460.938,420
2.739,995.605,979.004,-741.211,-905.762,420
2.743,-665.039,-608.398,-566.895,593.750,420
2.747,-1000.000,-1000.000,-177.734,-777.344,420
2.751,348.145,-154.297,-486.816,309.082,420
2.754,-849.609,-984.863,-788.086,-980.957,420
2.758,-240.723,-233.887,-626.953,202.637,420
2.762,-1000.000,-1000.000,-287.598,-783.203,420
2.766,-418.945,-770.996,-488.281,781.250,420
2.770,-957.031,803.223,-752.930,-780.762,420
2.774,644.043,608.398,-664.062,-571.289,420
2.778,-974.121,-1000.000,-402.832,-947.754,420
2.782,-983.398,-968.750,-411.621,922.363,420
2.786,670.410,665.527,-669.434,-693.359,420
2.790,-981.934,979.492,-676.758,-1000.000,420
2.793,-710.449,-686.523,-522.949,634.277,420
2.797,-1000.000,-1000.000,-281.738,-803.711,420
2.801,682.129,421.875,-589.844,-348.145,420
2.805,-996.582,985.840,-748.535,-997.559,420
2.809,-619.141,-570.801,-466.309,546.875,420
2.813,-1000.000,-1000.000,-107.422,-766.602,420
2.817,181.641,-413.574,-525.879,506.836,420
2.821,-834.961,965.820,-766.602,-935.547,420
2.825,-43.945,-73.242,-623.535,82.520,420
2.829,-1000.000,-1000.000,-379.395,-798.828,420
2.833,-595.215,-762.695,-504.395,755.371,420
2.836,940.918,742.676,-679.199,-733.887,420
2.840,755.371,765.137,-660.156,-756.348,420
2.844,-920.410,-956.055,-438.477,958.496,420
2.848,-1000.000,-1000.000,-309.570,973.633,420
2.852,668.457,667.480,-595.215,-680.664,420
2.856,-988.770,987.305,-703.613,-1000.000,420
2.860,-694.824,-638.184,-574.707,588.379,420
2.864,-1000.000,-1000.000,-287.109,-776.367,420
2.868,571.289,252.930,-578.613,-130.859,420
2.872,-928.223,-981.934,-765.625,-1000.000,420
2.875,-470.215,-472.168,-598.145,447.266,420
2.879,-1000.000,-1000.000,-195.312,-769.531,420
2.883,-97.656,-597.168,-399.414,607.422,420
2.887,-875.977,910.156,-727.051,-897.461,420
2.891,225.586,184.570,-663.574,-143.066,420
2.895,-1000.000,-1000.000,-323.242,-833.496,420
2.899,-810.547,-917.969,-336.914,876.465,420
2.903,825.684,663.086,-690.918,-703.613,420
2.907,864.258,874.512,-725.098,-839.844,420
2.911,-863.770,-863.770,-456.543,872.559,420
2.914,-1000.000,-1000.000,-240.723,-925.293,420
2.918,675.781,594.238,-627.930,-538.574,420
2.922,-996.582,981.934,-757.812,-1000.000,420
2.926,-680.176,-618.652,-528.809,572.754,420
2.930,-1000.000,-1000.000,-222.168,-763.184,420
2.934,457.520,10.742,-564.941,88.379,420
2.938,-880.371,-976.074,-761.230,-1000.000,420
2.942,-326.660,-337.891,-540.039,323.730,420
2.946,-1000.000,-1000.000,-285.645,-774.414,420
2.950,-392.578,-709.961,-536.133,698.242,420
2.954,-954.102,850.098,-746.094,-846.680,420
2.957,458.496,437.500,-602.051,-359.375,420
2.961,-1000.000,-1000.000,-345.215,-884.277,420
2.965,-898.926,-945.312,-432.617,897.949,420
2.969,741.699,662.109,-702.637,-698.242,420
2.973,965.332,948.242,-611.816,-933.594,420
2.977,-766.602,-748.047,-513.672,750.977,420
2.981,-1000.000,-1000.000,-393.066,-856.445,420
2.985,684.570,493.164,-595.215,-443.359,420
2.989,991.699,977.051,-732.910,-1000.000,420
2.993,-655.762,-601.562,-584.961,558.594,420
2.996,-1000.000,-1000.000,-263.184,-760.254,420
3.000,287.109,-243.652,-528.809,301.270,420
3.004,-853.027,999.023,-653.320,-979.004,420
3.008,-210.449,-192.871,-587.891,205.566,420
3.012,-1000.000,-1000.000,-390.137,-788.574,420
3.016,-603.027,-799.316,-500.000,810.547,420
3.020,958.984,766.113,-715.820,-732.910,420
3.024,577.148,576.172,-666.016,-485.840,420
3.028,-1000.000,-1000.000,-401.367,-915.527,420
3.032,-970.703,-962.402,-301.270,907.227,420
3.035,653.320,660.156,-602.051,-683.594,420
3.039,-980.469,987.793,-733.398,-1000.000,420
3.043,-705.078,-665.527,-539.062,622.070,420
3.047,-1000.000,-1000.000,-209.961,-801.758,420
3.051,640.137,372.070,-582.031,-348.633,420
3.055,-963.379,998.047,-784.180,-997.070,420
3.059,-542.969,-542.969,-575.195,547.363,420
3.063,-1000.000,-1000.000,-223.633,-771.484,420
3.067,24.414,-488.770,-492.188,536.133,420
3.071,-865.723,946.777,-734.863,-907.715,420
3.074,15.137,21.484,-638.184,70.312,420
3.078,-1000.000,-1000.000,-152.832,-795.410,420
3.082,-710.938,-887.695,-250.000,854.004,420
3.086,896.973,684.570,-733.887,-695.801,420
3.090,778.809,812.988,-665.527,-801.270,420
3.094,-925.293,-933.105,-438.965,926.758,420
3.098,-1000.000,-1000.000,-392.578,-981.445,420
3.102,670.410,643.066,-658.691,-619.629,420
3.106,-994.141,985.840,-721.191,-1000.000,420
3.110,-682.617,-631.836,-556.641,588.867,420
3.114,-1000.000,-1000.000,-217.773,-775.391,420
3.117,500.000,174.316,-535.156,-129.395,420
3.121,-914.551,-969.238,-712.402,-1000.000,420
3.125,-434.082,-418.945,-569.824,441.406,420
3.129,-1000.000,-1000.000,-341.309,-780.762,420
3.133,-193.848,-641.113,-532.715,653.809,420
3.137,-901.367,892.090,-699.219,-864.258,420
3.141,247.559,289.062,-630.371,-213.867,420
3.145,-1000.000,-1000.000,-386.230,-848.633,420
3.149,-805.176,-929.688,-486.328,880.859,420
3.153,810.547,664.062,-672.363,-692.383,420
3.156,928.711,901.855,-673.828,-914.551,420
3.160,-793.457,-822.266,-508.301,800.781,420
3.164,-1000.000,-1000.000,-251.465,-904.785,420
3.168,681.641,556.152,-539.062,-537.598,420
3.172,995.605,980.469,-714.844,-1000.000,420
3.176,-662.598,-611.816,-584.961,569.336,420
3.180,-1000.000,-1000.000,-219.238,-761.230,420
3.184,361.328,-82.520,-470.215,141.602,420
3.188,-877.930,-983.887,-743.164,-986.328,420
3.192,-322.266,-293.457,-638.184,320.801,420
3.195,-1000.000,-1000.000,-312.012,-792.969,420
3.199,-408.691,-746.094,-499.023,771.484,420
3.203,-959.473,820.312,-741.699,-779.297,420
3.207,529.297,527.832,-671.387,-501.465,420
3.211,-1000.000,-1000.000,-294.434,-924.805,420
3.215,-942.383,-957.031,-185.547,916.016,420
3.219,687.988,663.086,-682.129,-697.754,420
3.223,-983.398,966.797,-736.816,-971.680,420
3.227,-708.984,-711.914,-489.258,706.543,420
3.231,-1000.000,-1000.000,-297.363,-847.168,420
3.234,687.012,454.590,-616.699,-446.289,420
3.238,989.258,979.492,-750.000,-1000.000,420
3.242,-650.879,-590.820,-569.824,559.082,420
3.246,-1000.000,-1000.000,-256.836,-772.949,420
3.250,235.352,-337.402,-543.457,451.172,420
3.254,-839.355,983.887,-733.887,-835.449,420
3.258,-105.469,-104.980,-548.828,168.457,420
3.262,-1000.000,-1000.000,-304.199,-815.918,420
3.266,-619.629,-842.773,-495.605,860.840,420
3.270,954.590,731.445,-711.426,-699.707,420
3.274,757.812,738.281,-581.543,-774.414,420
3.277,-923.340,-987.305,-420.410,971.680,420
3.281,-1000.000,-988.770,-425.293,955.078,420
3.285,668.457,670.410,-661.133,-704.102,420
3.289,-988.770,991.211,-717.773,-1000.000,420
3.293,-693.359,-645.020,-572.754,597.656,420
3.297,-1000.000,-1000.000,-299.316,-786.621,420
3.301,579.590,316.895,-550.293,-244.141,420
3.305,-947.266,-981.934,-739.258,-991.699,420
3.309,-527.344,-497.070,-620.605,515.137,420
3.313,-1000.000,-1000.000,-276.855,-783.203,420
3.316,7.324,-556.152,-464.355,608.887,420
3.320,-848.633,927.246,-734.863,-895.996,420
3.324,212.402,143.066,-669.922,-143.066,420
3.328,-1000.000,-1000.000,-335.449,-833.496,420
3.332,-779.785,-912.598,-382.324,876.465,420
3.336,855.957,669.922,-696.777,-702.637,420
3.340,856.934,849.609,-717.285,-844.238,420
3.344,-861.816,-895.508,-456.055,883.789,420
3.348,-1000.000,-1000.000,-149.414,-955.078,420
3.352,675.781,621.582,-546.387,-595.703,420
3.355,-997.070,982.910,-775.391,-1000.000,420
3.359,-679.199,-623.535,-517.578,576.172,420
3.363,-1000.000,-1000.000,-61.523,-766.113,420
3.367,462.891,70.312,-483.398,52.734,420
3.371,-888.672,-972.168,-785.645,-1000.000,420
3.375,-372.070,-366.211,-562.500,350.586,420
3.379,-1000.000,-1000.000,-75.195,-778.320,420
3.383,-245.117,-687.988,-426.758,698.242,420
3.387,-904.785,862.793,-794.434,-846.191,420
3.391,435.059,381.836,-631.348,-359.375,420
3.395,-1000.000,-1000.000,-333.984,-884.277,420
3.398,-902.832,-939.941,-399.414,900.391,420
3.402,748.535,664.551,-718.262,-704.590,420
3.406,946.289,925.781,-660.645,-906.738,420
3.410,-790.527,-785.156,-506.836,789.062,420
3.414,-1000.000,-1000.000,-369.141,-876.465,420
3.418,682.129,521.973,-631.348,-473.633,420
3.422,996.094,977.539,-693.359,-1000.000,420
3.426,-665.527,-604.980,-550.293,559.570,420
3.430,-1000.000,-1000.000,-221.191,-761.719,420
3.434,345.703,-198.242,-496.094,301.270,420
3.437,-851.074,-995.117,-696.289,-978.516,420
3.441,-216.309,-219.727,-573.242,202.148,420
3.445,-1000.000,-1000.000,-333.984,-783.691,420
3.449,-579.102,-788.574,-498.047,781.250,420
3.453,974.121,785.645,-661.133,-780.762,420
3.457,671.387,616.699,-638.672,-571.289,420
3.461,-984.375,-1000.000,-436.523,-948.730,420
3.465,-987.305,-969.238,-386.230,926.758,420
3.469,660.645,665.039,-687.500,-705.566,420
3.473,-980.469,980.469,-723.633,-962.891,420
3.476,-711.426,-679.688,-564.941,689.453,420
3.480,-1000.000,-1000.000,-293.457,-812.988,420
3.484,669.434,400.879,-583.496,-346.680,420
3.488,-958.008,992.676,-745.605,-996.582,420
3.492,-564.941,-557.617,-575.195,546.875,420
3.496,-1000.000,-1000.000,-155.273,-766.602,420
3.500,201.172,-437.500,-409.180,506.836,420
3.504,-829.590,958.984,-767.090,-930.176,420
3.508,-6.348,-28.320,-647.949,76.172,420
3.512,-1000.000,-1000.000,-323.242,-797.363,420
3.515,-714.355,-875.977,-494.629,854.980,420
3.519,897.949,696.777,-757.812,-701.660,420
3.523,774.414,791.504,-677.246,-767.090,420
3.527,-929.199,-954.102,-443.848,953.125,420
3.531,-1000.000,-1000.000,-365.723,-988.770,420
3.535,668.945,655.273,-650.879,-617.188,420
3.539,-990.234,986.816,-708.496,-1000.000,420
3.543,-691.406,-634.766,-480.469,588.867,420
3.547,-1000.000,-1000.000,-222.656,-775.391,420
3.551,546.387,216.309,-576.172,-128.906,420
3.555,-916.016,-978.516,-733.887,-1000.000,420
3.558,-437.988,-451.660,-539.062,438.965,420
3.562,-1000.000,-1000.000,-278.809,-768.555,420
3.566,-159.180,-617.676,-542.480,606.934,420
3.570,-892.090,903.809,-729.004,-897.949,420
3.574,233.887,225.586,-628.906,-143.066,420
3.578,-1000.000,-1000.000,-365.234,-833.496,420
3.582,-809.082,-922.363,-442.383,875.000,420
3.586,826.172,664.062,-683.594,-698.730,420
3.590,864.258,883.301,-664.062,-865.234,420
3.594,-863.770,-848.633,-528.320,847.168,420
3.597,-1000.000,-1000.000,-365.723,-916.016,420
3.601,677.734,576.660,-602.539,-534.180,420
3.605,998.047,981.445,-716.309,-1000.000,420
3.609,-667.969,-615.234,-581.543,572.266,420
3.613,-1000.000,-1000.000,-247.070,-763.184,420
3.617,391.602,-34.668,-489.258,88.379,420
3.621,-878.906,-977.539,-730.957,-1000.000,420
3.625,-322.754,-313.965,-622.070,326.172,420
3.629,-1000.000,-1000.000,-263.672,-784.180,420
3.633,-405.273,-723.145,-405.273,736.816,420
3.636,-958.984,840.820,-711.426,-806.152,420
3.640,459.961,482.910,-684.082,-379.883,420
3.644,-1000.000,-1000.000,-321.289,-886.230,420
3.648,-896.484,-951.660,-206.543,898.438,420
3.652,734.375,663.574,-658.203,-692.383,420
3.656,990.723,955.566,-746.094,-960.938,420
3.660,-733.398,-732.910,-514.648,721.191,420
3.664,-1000.000,-1000.000,-278.320,-850.098,420
3.668,686.523,474.609,-595.703,-444.824,420
3.672,988.770,976.562,-769.531,-1000.000,420
3.676,-649.414,-599.121,-512.207,558.105,420
3.679,-1000.000,-1000.000,-16.113,-760.742,420
3.683,246.094,-277.344,-468.262,311.523,420
3.687,-854.004,993.164,-786.621,-974.609,420
3.691,-208.496,-174.805,-566.406,206.543,420
3.695,-1000.000,-1000.000,-348.633,-804.688,420
3.699,-608.398,-821.777,-522.949,844.727,420
3.703,955.566,748.047,-724.121,-702.148,420
3.707,708.984,707.520,-660.645,-702.148,420
3.711,-967.285,-1000.000,-412.598,-992.188,420
3.715,-987.305,-977.539,-380.859,936.035,420
3.718,662.598,667.480,-665.039,-694.824,420
3.722,913.086,888.184,-685.547,-923.340,420
3.726,-729.004,-690.430,-527.832,641.602,420
3.730,-1000.000,-1000.000,-256.836,-815.430,420
3.734,583.496,346.680,-553.711,-340.820,420
3.738,-954.590,-995.605,-660.156,-999.512,420
3.742,-542.969,-534.668,-556.641,549.316,420
3.746,-1000.000,-1000.000,-296.875,-779.785,420
3.750,24.414,-523.438,-496.094,572.754,420
3.754,-865.723,934.082,-745.117,-892.090,420
3.757,15.137,68.848,-658.691,8.301,420
3.761,-1000.000,-1000.000,-363.770,-805.176,420
3.765,-707.520,-896.973,-481.445,858.887,420
3.769,881.836,675.781,-711.914,-691.406,420
3.773,851.074,839.355,-684.082,-849.121,420
3.777,-858.887,-908.203,-474.609,889.648,420
3.781,-1000.000,-1000.000,-288.086,-970.703,420
3.785,675.781,636.230,-625.000,-624.023,420
3.789,-996.582,983.887,-753.906,-1000.000,420
3.793,-677.246,-626.953,-563.477,581.055,420
3.796,-1000.000,-1000.000,-95.215,-767.578,420
3.800,474.121,125.488,-454.102,-35.645,420
3.804,-912.598,-974.121,-805.664,-985.352,420
3.808,-434.570,-403.320,-594.238,431.152,420
3.812,-1000.000,-1000.000,-230.469,-786.621,420
3.816,-201.172,-665.039,-475.586,695.312,420
3.820,-897.461,875.977,-754.395,-840.332,420
3.824,357.910,331.055,-650.391,-318.848,420
3.828,-1000.000,-1000.000,-259.766,-873.047,420
3.832,-844.727,-934.082,-383.789,895.020,420
3.836,793.945,664.062,-749.512,-700.195,420
3.839,937.500,913.574,-688.477,-911.133,420
3.843,-788.086,-804.688,-386.719,796.875,420
3.847,-1000.000,-1000.000,-243.164,-895.508,420
3.851,682.129,540.039,-645.996,-516.602,420
3.855,996.094,979.492,-743.652,-1000.000,420
3.859,-663.574,-608.887,-565.430,561.523,420
3.863,-1000.000,-1000.000,-231.934,-760.254,420
3.867,355.469,-139.648,-539.551,275.391,420
3.871,-865.723,-987.305,-715.820,-963.867,420
3.875,-286.133,-251.465,-584.961,252.441,420
3.878,-1000.000,-1000.000,-369.141,-786.133,420
3.882,-420.898,-766.113,-524.414,779.785,420
3.886,-961.426,805.176,-715.332,-778.809,420
3.890,645.020,586.914,-671.875,-571.289,420
3.894,-974.121,-1000.000,-398.438,-948.730,420
3.898,-984.375,-965.332,-357.422,926.758,420
3.902,668.945,664.062,-683.105,-705.078,420
3.906,-981.934,978.027,-719.727,-963.867,420
3.910,-709.961,-690.430,-511.230,693.848,420
3.914,-1000.000,-1000.000,-232.910,-819.824,420
3.917,687.012,429.688,-503.418,-366.699,420
3.921,989.258,980.469,-709.473,-997.070,420
3.925,-651.367,-581.055,-598.145,548.340,420
3.929,-1000.000,-1000.000,-248.047,-767.578,420
3.933,229.492,-398.438,-510.742,506.836,420
3.937,-832.031,964.844,-764.648,-929.688,420
3.941,-46.875,-74.219,-650.391,78.613,420
3.945,-1000.000,-1000.000,-325.684,-796.875,420
3.949,-691.895,-861.328,-479.492,854.492,420
3.953,909.180,709.961,-737.793,-700.195,420
3.956,770.996,767.578,-699.707,-770.996,420
3.960,-928.223,-971.680,-363.770,963.379,420
3.964,-1000.000,-997.559,-123.535,980.957,420
3.968,668.457,668.457,-634.277,-665.039,420
3.972,-988.770,988.281,-752.441,-1000.000,420
3.976,-694.824,-639.648,-487.793,588.379,420
3.980,-1000.000,-1000.000,-271.484,-774.902,420
3.984,571.777,263.672,-600.098,-133.301,420
3.988,-927.734,-981.934,-759.277,-999.023,420
3.992,-481.934,-476.074,-594.727,458.984,420
3.996,-1000.000,-1000.000,-268.066,-770.996,420
3.999,-34.180,-590.820,-514.648,607.422,420
4.003,-858.887,913.574,-726.562,-897.461,420
4.007,216.309,183.594,-561.035,-142.578,420
4.011,-1000.000,-1000.000,-303.223,-833.496,420
4.015,-811.523,-918.457,-457.520,876.465,420
4.019,825.684,665.039,-691.895,-703.613,420
4.023,864.258,867.188,-602.539,-840.332,420
4.027,-863.770,-871.094,-487.305,874.512,420
4.031,-1000.000,-1000.000,-379.395,-929.688,420
4.035,675.781,594.727,-632.812,-546.875,420
4.038,-996.582,986.816,-740.234,-1000.000,420
4.042,-679.688,-625.000,-585.938,583.008,420
4.046,-1000.000,-1000.000,-267.578,-762.207,420
4.050,457.520,103.516,-522.461,-107.910,420
4.054,-878.418,-942.383,-727.051,-1000.000,420
4.058,-329.102,-348.633,-620.605,356.934,420
4.062,-1000.000,-1000.000,-337.891,-790.039,420
4.066,-353.516,-709.961,-466.797,703.613,420
4.070,-940.430,852.539,-706.543,-847.168,420
4.074,452.148,433.105,-657.715,-359.375,420
4.077,-1000.000,-1000.000,-346.680,-884.277,420
4.081,-901.855,-945.801,-318.359,900.391,420
4.085,746.582,664.551,-661.621,-705.566,420
4.089,946.777,937.988,-729.004,-904.297,420
4.093,-791.016,-761.719,-496.582,788.574,420
4.097,-1000.000,-1000.000,-209.961,-869.141,420
4.101,683.105,495.605,-580.078,-439.941,420
4.105,993.164,977.051,-770.508,-906.738,420
4.109,-659.668,-602.051,-532.715,592.285,420
4.113,-1000.000,-1000.000,-156.738,-776.367,420
4.117,310.059,-239.258,-519.531,309.082,420
4.120,-853.027,-997.559,-779.785,-981.445,420
4.124,-212.402,-189.453,-594.238,206.055,420
4.128,-1000.000,-1000.000,-221.191,-793.457,420
4.132,-609.375,-804.199,-452.148,815.430,420
4.136,961.426,770.996,-747.559,-735.840,420
4.140,676.758,667.480,-659.668,-578.613,420
4.144,-986.816,-1000.000,-255.371,-946.777,420
4.148,-986.816,-977.051,-207.031,922.852,420
4.152,661.133,667.969,-684.570,-691.895,420
4.156,-983.887,984.375,-696.777,-1000.000,420
4.159,-703.125,-666.504,-532.227,627.441,420
4.163,-1000.000,-1000.000,-319.336,-802.734,420
4.167,630.859,371.094,-587.891,-348.145,420
4.171,-961.426,999.023,-725.098,-997.559,420
4.175,-545.410,-541.992,-587.402,547.363,420
4.179,-1000.000,-1000.000,-280.273,-769.531,420
4.183,45.410,-486.328,-526.855,523.438,420
4.187,-861.328,950.684,-743.652,-917.480,420
4.191,12.695,37.109,-622.559,72.754,420
4.195,-1000.000,-1000.000,-332.520,-796.387,420
4.198,-711.914,-889.648,-464.355,853.516,420
4.202,897.949,687.012,-648.438,-695.312,420
4.206,774.414,811.035,-648.926,-803.223,420
4.210,-929.199,-933.594,-502.441,925.781,420
4.214,-1000.000,-1000.000,-340.820,-980.957,420
4.218,670.410,641.602,-637.207,-619.629,420
4.222,-994.141,985.840,-760.742,-1000.000,420
4.226,-687.012,-636.719,-583.008,593.750,420
4.230,-1000.000,-1000.000,-246.582,-781.250,420
4.234,494.629,168.945,-557.617,-127.441,420
4.237,986.328,932.617,-749.512,-911.621,420
4.241,-468.262,-450.195,-588.379,475.586,420
4.245,-1000.000,-1000.000,-192.383,-797.852,420
4.249,-202.637,-647.949,-421.387,665.039,420
4.253,-897.949,896.484,-770.020,-865.234,420
4.257,261.719,291.504,-671.387,-220.703,420
4.261,-1000.000,-1000.000,-266.113,-850.098,420
4.265,-808.105,-930.176,-367.676,882.324,420
4.269,814.453,665.039,-740.723,-694.336,420
4.273,917.480,898.438,-686.523,-908.691,420
4.277,-805.664,-825.684,-497.559,806.641,420
4.280,-1000.000,-1000.000,-338.379,-905.762,420
4.284,681.152,555.176,-607.422,-537.598,420
4.288,996.094,980.957,-711.914,-1000.000,420
4.292,-667.969,-617.188,-486.816,573.730,420
4.296,-1000.000,-1000.000,-222.656,-767.578,420
4.300,359.375,-85.938,-581.543,150.391,420
4.304,-977.051,921.387,-722.168,-884.277,420
4.308,-356.445,-314.453,-556.641,354.004,420
4.312,-1000.000,-1000.000,-343.262,-811.523,420
4.316,-419.434,-758.789,-532.227,786.621,420
4.319,-958.008,820.312,-727.051,-778.320,420
4.323,600.586,549.316,-670.898,-541.992,420
4.327,-1000.000,-1000.000,-406.250,-938.477,420
4.331,-949.219,-960.449,-394.531,922.363,420
4.335,701.172,663.086,-649.902,-701.172,420
4.339,-986.816,973.633,-677.734,-970.215,420
4.343,-708.984,-702.637,-553.711,705.078,420
4.347,-1000.000,-1000.000,-333.496,-843.750,420
4.351,687.012,451.172,-576.660,-437.012,420
4.355,989.258,976.562,-739.258,-999.512,420
4.358,-650.879,-593.750,-593.262,552.734,420
4.362,-1000.000,-1000.000,-215.332,-768.555,420
4.366,234.863,-351.562,-482.910,471.191,420
4.370,-837.891,979.004,-754.883,-933.105,420
4.374,-97.168,-99.609,-648.926,113.281,420
4.378,-1000.000,-1000.000,-323.730,-798.828,420
4.382,-620.605,-847.168,-437.500,853.516,420
4.386,955.078,725.098,-713.867,-698.242,420
4.390,757.324,753.906,-694.336,-774.414,420
4.394,-923.340,-979.004,-374.023,971.680,420
4.397,-1000.000,-991.699,-128.906,955.078,420
4.401,668.457,671.875,-604.004,-704.590,0
