timestamps,TP9,AF7,AF8,TP10,Marker0
1614036452.682,-216.309,-321.289,-629.395,203.613,Default
1614036452.686,-837.891,-865.234,-640.137,-1000.000,Default
1614036452.689,246.094,250.000,-579.102,-276.367,Default
1614036452.693,-1000.000,-1000.000,-512.207,-818.848,Default
1614036452.697,-605.957,-804.199,-563.965,562.988,Default
1614036452.701,-958.984,833.496,-620.605,-1000.000,Default
1614036452.705,306.641,462.402,-575.195,-524.902,Default
1614036452.709,-1000.000,-1000.000,-444.824,980.469,Default
1614036452.713,-1000.000,-1000.000,-436.035,-938.965,Default
1614036452.717,306.152,142.090,-685.547,-352.051,Default
1614036452.721,832.520,934.082,-594.238,-1000.000,Default
1614036452.725,-737.305,-565.430,-493.652,403.809,Default
1614036452.728,-1000.000,-1000.000,-513.184,-767.578,Default
1614036452.732,-187.012,-198.242,-692.871,175.293,Default
1614036452.736,-880.371,-861.816,-610.352,-1000.000,Default
1614036452.740,-69.824,67.871,-525.391,-166.992,Default
1614036452.744,-1000.000,-1000.000,-511.230,-767.578,Default
1614036452.748,-260.254,-437.012,-637.207,242.676,Default
1614036452.752,-845.703,-900.391,-633.789,-1000.000,0
1614036452.756,246.582,253.906,-499.512,-275.879,Default
1614036452.760,-1000.000,-1000.000,-458.984,-838.379,Default
1614036452.764,-725.098,-940.430,-607.422,664.062,0
1614036452.768,933.594,642.090,-655.273,-981.934,Default
1614036452.771,467.285,603.027,-569.824,-667.480,0
1614036452.775,-1000.000,-945.312,-532.715,890.137,Default
1614036452.779,-1000.000,-1000.000,-566.406,-875.488,Default
1614036452.783,182.129,-12.695,-661.133,-180.176,0
1614036452.787,948.242,-950.195,-559.082,-1000.000,Default
1614036452.791,-565.430,-333.984,-488.770,181.152,Default
1614036452.795,-1000.000,-1000.000,-500.488,-750.977,0
1614036452.799,-195.801,-208.984,-643.066,187.500,Default
1614036452.803,-864.746,-845.703,-520.508,-1000.000,Default
1614036452.807,40.039,186.523,-555.664,-274.902,0
1614036452.810,-1000.000,-1000.000,-547.852,-798.340,Default
1614036452.814,-415.039,-561.035,-623.535,379.883,0
1614036452.818,-893.555,-945.312,-652.832,-1000.000,Default
1614036452.822,254.883,274.902,-604.492,-346.680,Default
1614036452.826,-1000.000,-1000.000,-527.832,-896.973,0
1614036452.830,-908.691,-1000.000,-556.641,843.262,Default
1614036452.834,698.242,400.391,-680.664,-740.234,Default
1614036452.838,589.844,729.492,-594.727,-840.820,0
1614036452.842,-960.449,-839.844,-487.305,726.562,Default
1614036452.846,-1000.000,-1000.000,-487.793,-824.707,Default
1614036452.850,52.246,-137.695,-656.738,-47.852,0
1614036452.853,-955.566,-896.973,-592.773,-1000.000,Default
1614036452.857,-382.812,-150.879,-531.250,59.570,Default
1614036452.861,-1000.000,-1000.000,-394.043,-751.465,0
1614036452.865,-207.031,-257.324,-557.617,195.312,Default
1614036452.869,-849.121,-849.609,-657.227,-1000.000,Default
1614036452.873,166.992,239.746,-545.898,-277.344,0
1614036452.877,-1000.000,-1000.000,-496.094,-811.035,Default
1614036452.881,-537.598,-706.055,-618.652,508.301,Default
1614036452.885,-936.035,942.383,-668.945,-1000.000,0
1614036452.889,261.719,374.512,-535.645,-468.262,Default
1614036452.892,-1000.000,-1000.000,-458.008,-971.680,0
1614036452.896,-999.512,-1000.000,-582.520,985.352,Default
1614036452.900,459.961,208.496,-685.059,-510.742,Default
1614036452.904,600.098,844.238,-573.730,-986.328,0
1614036452.908,-883.301,-677.246,-501.953,542.480,Default
1614036452.912,-1000.000,-1000.000,-529.785,-788.086,Default
1614036452.916,-119.141,-193.359,-688.477,88.867,0
1614036452.920,-886.719,-872.070,-579.590,-1000.000,Default
1614036452.924,-170.898,1.465,-525.879,-88.867,Default
1614036452.928,-1000.000,-1000.000,-535.645,-762.207,0
1614036452.932,-216.309,-361.328,-667.969,207.031,Default
1614036452.935,-837.891,-875.000,-595.703,-1000.000,Default
1614036452.939,246.094,249.512,-543.457,-275.391,0
1614036452.943,-1000.000,-1000.000,-501.465,-826.660,Default
1614036452.947,-643.555,-870.605,-574.707,610.352,0
1614036452.951,-979.980,746.094,-585.449,-1000.000,Default
1614036452.955,360.840,514.648,-512.695,-580.566,Default
1614036452.959,-1000.000,-991.699,-544.434,944.336,0
1614036452.963,-1000.000,-1000.000,-542.969,-898.926,Default
1614036452.967,294.922,63.965,-651.367,-250.488,Default
1614036452.971,846.680,991.699,-613.281,-1000.000,0
1614036452.975,-772.461,-519.043,-521.973,338.379,Default
1614036452.978,-1000.000,-1000.000,-481.934,-865.234,Default
1614036452.982,-14.160,-22.461,-636.719,1.953,0
1614036452.986,-888.184,-872.070,-581.543,-1000.000,Default
1614036452.990,3.418,129.883,-556.641,-249.512,0
1614036452.994,-1000.000,-1000.000,-453.125,-793.457,Default
1614036452.998,-329.102,-490.234,-532.227,313.965,Default
1614036453.002,-861.816,-916.992,-665.039,-1000.000,0
1614036453.006,251.465,252.930,-581.543,-276.367,Default
1614036453.010,-1000.000,-1000.000,-504.395,-858.887,Default
1614036453.014,-783.691,-1000.000,-583.496,766.602,0
1614036453.017,868.652,522.949,-671.875,-855.469,Default
1614036453.021,475.586,644.531,-573.242,-727.539,Default
1614036453.025,-1000.000,-917.480,-496.582,843.262,0
1614036453.029,-1000.000,-1000.000,-531.738,-854.492,Default
1614036453.033,105.957,-82.520,-663.086,-100.586,Default
1614036453.037,-992.676,-920.410,-593.750,-1000.000,0
1614036453.041,-458.008,-241.211,-427.246,112.305,Default
1614036453.045,-1000.000,-1000.000,-406.250,-750.488,0
1614036453.049,-206.055,-220.703,-708.008,191.895,Default
1614036453.053,-849.121,-843.262,-611.328,-1000.000,Default
1614036453.057,143.066,218.750,-535.645,-276.367,0
1614036453.060,-1000.000,-1000.000,-543.945,-803.711,Default
1614036453.064,-441.406,-629.395,-628.906,445.312,Default
1614036453.068,-891.602,-993.164,-623.047,-1000.000,0
1614036453.072,253.906,309.082,-535.156,-398.926,Default
1614036453.076,-1000.000,-1000.000,-508.789,-930.176,Default
1614036453.080,-919.434,-1000.000,-574.707,915.039,0
1614036453.084,675.781,318.359,-614.258,-610.840,Default
1614036453.088,640.625,804.688,-494.629,-949.707,Default
1614036453.092,-923.340,-755.859,-521.484,587.402,0
1614036453.096,-1000.000,-1000.000,-545.410,-798.340,Default
1614036453.099,-44.922,-168.945,-673.340,41.992,0
1614036453.103,-872.559,-877.930,-600.586,-1000.000,Default
1614036453.107,-192.871,-65.430,-539.062,-45.410,Default
1614036453.111,-1000.000,-1000.000,-525.879,-758.301,0
1614036453.115,-216.797,-303.223,-657.715,203.613,Default
1614036453.119,-836.914,-859.375,-610.840,-1000.000,Default
1614036453.123,248.047,250.000,-538.086,-278.320,0
1614036453.127,-1000.000,-1000.000,-523.926,-812.988,Default
1614036453.131,-539.551,-768.066,-532.715,552.246,Default
1614036453.135,-988.281,798.828,-587.891,-1000.000,0
1614036453.139,159.180,343.750,-601.074,-441.895,Default
1614036453.142,-1000.000,-1000.000,-498.047,964.844,0
1614036453.146,-1000.000,-1000.000,-535.645,-930.176,Default
1614036453.150,336.914,154.297,-701.660,-330.566,Default
1614036453.154,782.227,915.039,-623.047,-1000.000,0
1614036453.158,-792.480,-594.238,-488.281,389.648,Default
1614036453.162,-1000.000,-1000.000,-485.352,-765.625,Default
1614036453.166,-189.453,-199.219,-689.453,176.270,0
1614036453.170,-878.906,-861.328,-604.004,-1000.000,Default
1614036453.174,-71.777,68.359,-478.027,-175.293,Default
1614036453.178,-1000.000,-1000.000,-440.918,-770.020,0
1614036453.182,-225.098,-416.016,-667.480,249.512,Default
1614036453.185,-822.266,-888.672,-645.508,-1000.000,Default
1614036453.189,214.355,247.559,-541.992,-250.000,0
1614036453.193,-1000.000,-1000.000,-532.715,-913.574,Default
1614036453.197,-602.051,-912.598,-618.164,607.422,Default
1614036453.201,917.480,657.227,-636.719,-910.156,0
1614036453.205,423.828,573.242,-545.898,-674.805,Default
1614036453.209,-1000.000,-961.426,-519.531,886.230,Default
1614036453.213,-1000.000,-1000.000,-559.082,-869.629,0
1614036453.217,178.711,4.883,-668.457,-158.691,Default
1614036453.221,949.219,-962.891,-540.527,-1000.000,0
1614036453.224,-565.430,-364.746,-466.797,177.734,Default
1614036453.228,-1000.000,-1000.000,-539.551,-750.000,Default
1614036453.232,-195.801,-208.496,-693.359,187.500,0
1614036453.236,-862.305,-846.191,-566.406,-1000.000,Default
1614036453.240,38.086,186.035,-542.969,-277.344,Default
1614036453.244,-1000.000,-1000.000,-558.105,-792.480,0
1614036453.248,-362.793,-544.922,-609.863,385.742,Default
1614036453.252,-871.094,-937.012,-591.309,-1000.000,Default
1614036453.256,246.582,271.484,-551.270,-268.066,0
1614036453.260,-1000.000,-1000.000,-519.531,-918.457,Default
1614036453.264,-894.043,-1000.000,-522.461,880.371,Default
1614036453.267,719.727,437.988,-565.430,-691.895,0
1614036453.271,586.426,712.891,-571.777,-847.168,Default
1614036453.275,-959.961,-856.934,-528.809,727.051,0
1614036453.279,-1000.000,-1000.000,-547.363,-825.195,Default
1614036453.283,52.246,-125.977,-695.801,-35.645,Default
1614036453.287,-955.566,-901.367,-619.629,-1000.000,0
1614036453.291,-382.812,-170.410,-530.273,25.879,Default
1614036453.295,-1000.000,-1000.000,-525.391,-754.883,Default
1614036453.299,-208.008,-250.000,-693.359,200.195,0
1614036453.303,-841.797,-844.238,-625.977,-1000.000,Default
1614036453.306,135.742,227.051,-557.617,-258.789,Default
1614036453.310,-1000.000,-1000.000,-526.367,-868.652,0
1614036453.314,-424.805,-634.766,-614.258,429.688,Default
1614036453.318,-935.547,958.008,-622.559,-1000.000,0
1614036453.322,255.859,362.305,-574.707,-474.609,Default
1614036453.326,-1000.000,-1000.000,-404.785,-984.375,Default
1614036453.330,-1000.000,-1000.000,-418.945,-991.211,0
1614036453.334,516.113,253.418,-684.082,-476.562,Default
1614036453.338,690.430,838.867,-570.801,-979.980,Default
1614036453.342,-896.973,-708.496,-483.398,550.293,0
1614036453.346,-1000.000,-1000.000,-539.551,-786.621,Default
1614036453.349,-77.637,-188.477,-705.566,123.047,0
1614036453.353,-879.883,-873.535,-572.266,-1000.000,Default
1614036453.357,-188.477,-15.137,-485.352,-104.004,Default
1614036453.361,-1000.000,-1000.000,-537.109,-761.230,0
1614036453.365,-216.309,-343.262,-702.637,208.008,Default
1614036453.369,-838.867,-869.629,-568.848,-1000.000,Default
1614036453.373,246.094,248.535,-459.961,-275.391,0
1614036453.377,-1000.000,-1000.000,-534.668,-827.148,Default
1614036453.381,-643.555,-848.633,-616.699,615.234,0
1614036453.385,-980.469,775.879,-632.812,-1000.000,Default
1614036453.389,361.816,494.141,-569.336,-579.590,Default
1614036453.392,-1000.000,-1000.000,-543.457,940.430,0
1614036453.396,-1000.000,-1000.000,-581.543,-890.625,Default
1614036453.400,309.570,93.262,-659.668,-230.957,Default
1614036453.404,832.520,965.820,-562.012,-1000.000,0
1614036453.408,-735.840,-506.836,-497.070,316.895,Default
1614036453.412,-1000.000,-1000.000,-525.391,-760.254,Default
1614036453.416,-190.430,-202.637,-620.117,182.129,0
1614036453.420,-877.441,-855.469,-516.113,-1000.000,Default
1614036453.424,-35.645,117.188,-560.059,-247.070,Default
1614036453.428,-1000.000,-1000.000,-525.391,-786.621,0
1614036453.431,-315.918,-466.797,-617.676,329.590,Default
1614036453.435,-863.281,-912.109,-636.719,-1000.000,Default
1614036453.439,257.812,270.020,-591.797,-286.133,0
1614036453.443,-1000.000,-1000.000,-514.648,-840.820,Default
1614036453.447,-728.027,-866.211,-513.184,723.633,Default
1614036453.451,956.055,791.016,-622.559,-937.988,0
1614036453.455,467.773,596.680,-592.773,-714.355,Default
1614036453.459,-1000.000,-940.918,-471.191,849.609,0
1614036453.463,-1000.000,-1000.000,-470.215,-857.422,Default
1614036453.467,170.410,-63.477,-702.148,-92.773,Default
1614036453.471,946.289,-938.477,-608.887,-1000.000,0
1614036453.474,-564.941,-288.574,-509.766,108.398,Default
1614036453.478,-1000.000,-1000.000,-537.109,-750.488,Default
1614036453.482,-205.566,-213.379,-701.660,193.848,0
1614036453.486,-847.656,-835.449,-592.773,-1000.000,Default
1614036453.490,101.074,197.754,-506.836,-257.324,Default
1614036453.494,-1000.000,-1000.000,-512.207,-858.398,0
1614036453.498,-349.121,-510.254,-606.934,337.402,Default
1614036453.502,-903.809,-972.168,-623.535,-1000.000,0
1614036453.506,255.371,297.852,-485.840,-396.973,Default
1614036453.510,-1000.000,-1000.000,-397.949,-926.270,Default
1614036453.513,-908.203,-1000.000,-555.664,892.578,0
1614036453.517,699.219,356.934,-671.875,-652.344,Default
1614036453.521,586.426,749.023,-564.941,-931.152,Default
1614036453.525,-957.520,-818.359,-519.531,611.328,0
1614036453.529,-1000.000,-1000.000,-558.594,-805.664,Default
1614036453.533,-17.578,-163.086,-669.434,15.137,Default
1614036453.537,-903.320,-879.395,-577.148,-1000.000,0
1614036453.541,-293.457,-117.188,-532.715,-15.137,Default
1614036453.545,-1000.000,-1000.000,-525.391,-814.941,0
1614036453.549,-126.953,-187.500,-617.676,115.234,Default
1614036453.553,-850.098,-862.305,-518.066,-1000.000,Default
1614036453.556,246.582,247.559,-562.012,-276.855,0
1614036453.560,-1000.000,-1000.000,-546.875,-815.918,Default
1614036453.564,-549.316,-742.188,-588.867,527.344,Default
1614036453.568,-929.688,904.785,-641.602,-1000.000,0
1614036453.572,257.812,408.691,-568.359,-500.000,Default
1614036453.576,-1000.000,-1000.000,-505.859,-994.141,Default
1614036453.580,-1000.000,-1000.000,-559.082,-986.816,0
1614036453.584,504.883,185.059,-673.828,-441.406,Default
1614036453.588,737.793,905.273,-586.426,-1000.000,0
1614036453.592,-840.820,-613.770,-502.930,440.918,Default
1614036453.596,-1000.000,-1000.000,-447.266,-777.344,Default
1614036453.599,-139.648,-196.777,-617.676,105.957,0
1614036453.603,-869.141,-864.258,-612.305,-1000.000,Default
1614036453.607,-90.820,41.992,-538.086,-135.254,Default
1614036453.611,-1000.000,-1000.000,-442.871,-769.531,0
1614036453.615,-222.168,-382.812,-600.586,212.402,Default
1614036453.619,-833.496,-879.395,-649.414,-1000.000,Default
1614036453.623,247.070,251.953,-535.645,-276.367,0
1614036453.627,-1000.000,-1000.000,-506.836,-818.359,Default
1614036453.631,-625.000,-873.047,-607.910,585.449,0
1614036453.635,963.379,659.180,-663.086,-993.652,Default
1614036453.638,273.438,457.520,-508.789,-494.141,Default
1614036453.642,-1000.000,-966.797,-438.477,939.453,0
1614036453.646,-1000.000,-1000.000,-574.707,-915.039,Default
1614036453.650,284.668,51.270,-681.641,-290.039,Default
1614036453.654,910.645,-985.840,-574.707,-1000.000,0
1614036453.658,-634.766,-419.434,-504.395,293.945,Default
1614036453.662,-1000.000,-1000.000,-526.855,-760.742,Default
1614036453.666,-197.266,-205.566,-686.523,182.129,0
1614036453.670,-862.305,-850.098,-575.684,-1000.000,Default
1614036453.674,37.598,150.879,-546.387,-231.445,Default
1614036453.678,-1000.000,-1000.000,-553.711,-776.855,0
1614036453.681,-313.477,-481.445,-618.164,249.023,Default
1614036453.685,-916.016,-975.586,-590.332,-1000.000,0
1614036453.689,163.086,166.016,-558.105,-188.477,Default
1614036453.693,-1000.000,-1000.000,-517.090,-847.168,Default
1614036453.697,-786.133,-1000.000,-570.312,650.879,0
1614036453.701,859.863,510.742,-575.684,-909.180,Default
1614036453.705,565.430,704.590,-543.945,-928.711,Default
1614036453.709,-957.031,-863.770,-534.180,585.938,0
1614036453.713,-1000.000,-1000.000,-443.848,-832.031,Default
1614036453.717,53.711,-96.191,-650.391,-141.602,Default
1614036453.720,-960.938,-913.086,-686.523,-1000.000,0
1614036453.724,-390.625,-218.262,-567.383,-24.902,Default
1614036453.728,-1000.000,-1000.000,-284.180,-770.508,0
1614036453.732,-205.566,-239.258,-500.000,206.543,Default
1614036453.736,-850.586,-848.633,-689.453,-1000.000,Default
1614036453.740,145.020,223.633,-667.480,-273.926,0
1614036453.744,-1000.000,-1000.000,-299.316,-806.152,Default
1614036453.748,-532.227,-677.734,-339.355,421.387,Default
1614036453.752,-936.523,966.309,-739.746,-1000.000,Default
1614036453.756,259.766,313.965,-706.055,-498.047,Default
1614036453.760,-1000.000,-1000.000,-402.344,-962.402,Default
1614036453.763,-1000.000,-1000.000,-373.047,884.277,Default
1614036453.767,519.531,266.113,-720.215,-643.066,Default
1614036453.771,654.297,793.945,-695.801,-1000.000,Default
1614036453.775,-943.359,-790.527,-488.281,469.727,Default
1614036453.779,-1000.000,-1000.000,-368.164,-893.555,Default
1614036453.783,7.324,-97.168,-647.949,-129.883,Default
1614036453.787,-889.648,-892.090,-662.598,-1000.000,Default
1614036453.791,-187.988,-53.223,-503.418,-145.996,Default
1614036453.795,-1000.000,-1000.000,-140.137,-783.691,Default
1614036453.799,-216.309,-337.891,-458.984,216.309,Default
1614036453.803,-838.867,-872.070,-701.172,-1000.000,Default
1614036453.806,246.094,250.488,-618.652,-274.414,Default
1614036453.810,-1000.000,-1000.000,-426.758,-822.754,Default
1614036453.814,-637.207,-833.984,-474.121,580.078,Default
1614036453.818,-981.934,797.852,-678.223,-1000.000,Default
1614036453.822,262.207,432.617,-645.020,-576.172,Default
1614036453.826,-1000.000,-1000.000,-410.156,945.312,Default
1614036453.830,-1000.000,-1000.000,-354.980,-905.762,Default
1614036453.834,306.641,116.211,-652.832,-279.785,Default
1614036453.838,813.965,918.457,-628.418,-1000.000,Default
1614036453.842,-758.789,-581.543,-504.883,306.641,Default
1614036453.845,-1000.000,-1000.000,-354.980,-760.742,Default
1614036453.849,-187.988,-196.777,-630.371,181.641,Default
1614036453.853,-883.301,-864.746,-672.852,-1000.000,Default
1614036453.857,-66.406,54.199,-607.910,-224.121,Default
1614036453.861,-1000.000,-1000.000,-324.219,-782.715,Default
1614036453.865,-309.570,-444.824,-472.656,252.930,Default
1614036453.869,-862.305,-904.785,-685.547,-1000.000,Default
1614036453.873,250.488,252.930,-655.273,-271.973,Default
1614036453.877,-1000.000,-1000.000,-345.215,-849.609,Default
1614036453.881,-782.227,-967.285,-269.043,712.402,Default
1614036453.885,869.141,604.492,-636.719,-928.711,Default
1614036453.888,427.734,564.453,-727.539,-684.082,Default
1614036453.892,-1000.000,-965.332,-459.961,884.766,Default
1614036453.896,-1000.000,-1000.000,-351.074,-870.605,Default
1614036453.900,177.734,-36.621,-694.336,-154.297,Default
1614036453.904,949.219,-981.445,-710.449,-1000.000,Default
1614036453.908,-565.430,-376.465,-507.324,141.113,Default
1614036453.912,-1000.000,-1000.000,-243.164,-752.441,Default
1614036453.916,-195.801,-206.543,-571.777,190.430,Default
1614036453.920,-865.234,-848.145,-683.105,-1000.000,Default
1614036453.924,40.527,177.734,-562.012,-275.391,Default
1614036453.927,-1000.000,-1000.000,-161.133,-800.781,Default
1614036453.931,-428.711,-563.477,-387.695,405.273,Default
1614036453.935,-899.414,-948.730,-707.031,-1000.000,Default
1614036453.939,257.324,256.836,-648.926,-379.883,Default
1614036453.943,-1000.000,-1000.000,-421.875,-916.016,Default
1614036453.947,-908.203,-1000.000,-396.484,884.277,Default
1614036453.951,700.195,392.578,-691.895,-695.801,Default
1614036453.955,573.242,689.941,-672.363,-846.680,Default
1614036453.959,-963.867,-877.930,-466.309,728.516,Default
1614036453.963,-1000.000,-1000.000,-350.098,-828.613,Default
1614036453.967,13.672,-148.926,-678.711,-40.039,Default
1614036453.970,-962.402,-908.691,-614.258,-1000.000,Default
1614036453.974,-377.930,-171.875,-493.652,-4.395,Default
1614036453.978,-1000.000,-1000.000,-391.113,-759.766,Default
1614036453.982,-204.590,-257.812,-585.938,202.148,Default
1614036453.986,-850.586,-851.562,-613.281,-1000.000,Default
1614036453.990,145.020,237.305,-600.586,-276.855,Default
1614036453.994,-1000.000,-1000.000,-431.641,-812.988,Default
1614036453.998,-534.668,-717.773,-447.266,527.344,Default
1614036454.002,-937.500,930.664,-654.785,-1000.000,Default
1614036454.006,260.254,356.934,-679.688,-483.398,Default
1614036454.010,-1000.000,-1000.000,-455.566,-985.840,Default
1614036454.013,-1000.000,-1000.000,-330.566,-987.793,Default
1614036454.017,513.184,209.473,-601.074,-442.871,Default
1614036454.021,685.547,842.773,-664.551,-1000.000,Default
1614036454.025,-889.648,-699.219,-526.855,458.008,Default
1614036454.029,-1000.000,-1000.000,-332.031,-778.320,Default
1614036454.033,-166.016,-191.406,-575.684,141.113,Default
1614036454.037,-903.320,-876.465,-669.434,-1000.000,Default
1614036454.041,-175.293,-20.020,-581.055,-160.156,Default
1614036454.045,-1000.000,-1000.000,-357.910,-770.996,Default
1614036454.049,-213.867,-367.676,-540.527,213.867,Default
1614036454.052,-838.867,-879.395,-692.871,-1000.000,Default
1614036454.056,246.094,249.512,-632.324,-273.438,Default
1614036454.060,-1000.000,-1000.000,-351.074,-831.055,Default
1614036454.064,-643.555,-891.113,-402.832,629.395,Default
1614036454.068,-978.516,720.703,-678.711,-1000.000,Default
1614036454.072,356.934,505.859,-690.430,-617.676,Default
1614036454.076,-1000.000,-997.559,-318.848,914.551,Default
1614036454.080,-1000.000,-1000.000,-174.805,-881.348,Default
1614036454.084,244.141,64.453,-703.613,-185.059,Default
1614036454.088,828.125,964.355,-664.062,-1000.000,Default
1614036454.092,-731.445,-500.488,-484.375,223.633,Default
1614036454.095,-1000.000,-1000.000,-437.012,-753.906,Default
1614036454.099,-194.824,-202.148,-696.289,186.523,Default
1614036454.103,-871.094,-855.957,-644.531,-1000.000,Default
1614036454.107,0.488,120.117,-557.617,-272.949,Default
1614036454.111,-1000.000,-1000.000,-383.789,-794.922,Default
1614036454.115,-328.613,-493.652,-537.109,329.590,Default
1614036454.119,-861.328,-919.434,-632.324,-1000.000,Default
1614036454.123,247.070,252.930,-575.195,-305.664,Default
1614036454.127,-1000.000,-1000.000,-475.586,-880.371,Default
1614036454.131,-833.008,-1000.000,-464.355,810.059,Default
1614036454.134,805.176,510.254,-679.688,-786.133,Default
1614036454.138,481.934,623.047,-668.457,-801.270,Default
1614036454.142,-1000.000,-932.129,-521.973,762.695,Default
1614036454.146,-1000.000,-1000.000,-454.590,-832.031,Default
1614036454.150,75.684,-86.914,-667.969,-47.363,Default
1614036454.154,946.777,-941.895,-640.137,-1000.000,Default
1614036454.158,-536.621,-285.156,-529.297,68.359,Default
1614036454.162,-1000.000,-1000.000,-366.699,-750.000,Default
1614036454.166,-205.078,-213.379,-522.949,194.336,Default
1614036454.170,-851.074,-843.262,-580.566,-1000.000,Default
1614036454.174,143.066,216.309,-627.441,-276.855,Default
1614036454.177,-1000.000,-1000.000,-413.086,-806.152,Default
1614036454.181,-441.406,-626.953,-476.074,472.656,Default
1614036454.185,-890.137,-990.234,-691.895,-1000.000,Default
1614036454.189,247.070,295.410,-692.383,-418.457,Default
1614036454.193,-1000.000,-1000.000,-412.109,-945.312,Default
1614036454.197,-980.469,-1000.000,-333.496,950.195,Default
1614036454.201,588.867,329.590,-681.641,-573.730,Default
1614036454.205,595.215,737.305,-682.617,-924.805,Default
1614036454.209,-951.172,-829.102,-420.898,623.535,Default
1614036454.213,-1000.000,-1000.000,-279.297,-801.270,Default
1614036454.216,-62.012,-166.992,-707.520,49.805,Default
1614036454.220,-941.406,-894.531,-697.266,-1000.000,Default
1614036454.224,-307.129,-121.094,-539.551,-36.621,Default
1614036454.228,-1000.000,-1000.000,-418.457,-755.859,Default
1614036454.232,-212.402,-277.832,-625.000,202.637,Default
1614036454.236,-841.797,-854.492,-664.551,-1000.000,Default
1614036454.240,232.422,247.559,-613.281,-276.367,Default
1614036454.244,-1000.000,-1000.000,-406.738,-812.988,Default
1614036454.248,-547.363,-761.230,-444.336,527.344,Default
1614036454.252,-927.734,885.742,-674.316,-1000.000,Default
1614036454.256,247.559,391.113,-592.285,-482.910,Default
1614036454.259,-1000.000,-1000.000,-355.469,-987.793,Default
1614036454.263,-1000.000,-1000.000,-418.945,-982.422,Default
1614036454.267,376.953,183.594,-686.523,-434.082,Default
1614036454.271,693.359,864.258,-633.301,-1000.000,Default
1614036454.275,-886.719,-667.480,-515.625,461.914,Default
1614036454.279,-1000.000,-1000.000,-438.965,-778.320,Default
1614036454.283,-187.012,-194.336,-666.016,145.020,Default
1614036454.287,-892.090,-870.605,-632.324,-1000.000,Default
1614036454.291,-118.652,14.160,-587.402,-158.691,Default
1614036454.295,-1000.000,-1000.000,-363.770,-770.020,Default
1614036454.299,-218.262,-397.949,-467.285,213.867,Default
1614036454.302,-835.449,-889.160,-604.004,-1000.000,Default
1614036454.306,240.723,251.465,-659.180,-273.438,Default
1614036454.310,-1000.000,-1000.000,-420.898,-830.566,Default
1614036454.314,-722.656,-914.062,-396.484,627.930,Default
1614036454.318,936.035,686.523,-672.852,-1000.000,Default
1614036454.322,370.605,525.879,-691.406,-603.516,Default
1614036454.326,-1000.000,-988.281,-480.469,926.758,Default
1614036454.330,-1000.000,-1000.000,-388.672,-890.625,Default
1614036454.334,193.359,38.574,-685.059,-199.707,Default
1614036454.338,880.371,993.652,-660.156,-1000.000,Default
1614036454.341,-657.227,-448.730,-522.949,210.938,Default
1614036454.345,-1000.000,-1000.000,-195.312,-753.906,Default
1614036454.349,-197.754,-204.102,-445.312,187.012,Default
1614036454.353,-863.770,-853.027,-710.938,-1000.000,Default
1614036454.357,37.598,142.578,-601.562,-272.949,Default
1614036454.361,-1000.000,-1000.000,-331.543,-793.457,Default
1614036454.365,-355.469,-526.367,-484.375,327.637,Default
1614036454.369,-868.164,-933.594,-680.176,-1000.000,Default
1614036454.373,245.605,256.348,-609.375,-275.391,Default
1614036454.377,-1000.000,-1000.000,-417.480,-867.188,Default
1614036454.381,-891.113,-1000.000,-459.473,797.363,Default
1614036454.384,728.516,479.980,-692.871,-802.734,Default
1614036454.388,493.164,644.043,-615.234,-771.484,Default
1614036454.392,-1000.000,-920.898,-441.895,797.852,Default
1614036454.396,-1000.000,-1000.000,-441.406,-842.285,Default
1614036454.400,48.340,-107.422,-705.566,-65.918,Default
1614036454.404,-964.844,-916.992,-633.301,-1000.000,Default
1614036454.408,-400.391,-223.633,-507.324,69.336,Default
1614036454.412,-1000.000,-1000.000,-416.016,-751.465,Default
1614036454.416,-205.566,-231.445,-622.559,194.824,Default
1614036454.420,-849.609,-846.191,-658.203,-1000.000,Default
1614036454.423,144.531,224.609,-591.797,-276.367,Default
1614036454.427,-1000.000,-1000.000,-338.379,-805.176,Default
1614036454.431,-500.488,-655.762,-451.172,455.566,Default
1614036454.435,-919.922,986.816,-609.375,-1000.000,Default
1614036454.439,253.906,312.500,-567.871,-413.574,Default
1614036454.443,-1000.000,-1000.000,-450.195,-947.754,Default
1614036454.447,-1000.000,-1000.000,-423.828,953.613,Default
1614036454.451,521.484,291.992,-657.715,-553.711,Default
1614036454.455,647.949,778.809,-666.504,-964.355,Default
1614036454.459,-924.316,-783.691,-526.367,571.777,Default
1614036454.463,-1000.000,-1000.000,-410.645,-791.992,Default
1614036454.466,-81.055,-184.570,-667.480,63.477,Default
1614036454.470,-878.906,-882.324,-677.246,-1000.000,Default
1614036454.474,-187.988,-62.012,-588.379,-48.340,Default
1614036454.478,-1000.000,-1000.000,-349.121,-756.348,Default
1614036454.482,-216.309,-317.383,-504.395,203.125,Default
1614036454.486,-838.867,-864.746,-648.438,-1000.000,Default
1614036454.490,246.094,249.023,-650.879,-276.367,Default
1614036454.494,-1000.000,-1000.000,-340.332,-821.289,Default
1614036454.498,-638.672,-808.594,-294.922,575.684,Default
1614036454.502,-981.934,829.590,-687.988,-1000.000,Default
1614036454.506,283.691,437.988,-680.176,-540.527,Default
1614036454.509,-1000.000,-1000.000,-451.660,966.309,Default
1614036454.513,-1000.000,-1000.000,-413.086,-917.480,Default
1614036454.517,303.711,136.719,-701.660,-306.641,Default
1614036454.521,834.961,928.223,-671.875,-1000.000,Default
1614036454.525,-735.352,-574.707,-491.699,370.117,Default
1614036454.529,-1000.000,-1000.000,-403.809,-762.207,Default
1614036454.533,-187.012,-198.242,-675.293,175.293,Default
1614036454.537,-882.324,-862.305,-675.293,-1000.000,Default
1614036454.541,-67.383,67.383,-525.391,-167.969,Default
1614036454.545,-1000.000,-1000.000,-237.793,-767.578,Default
1614036454.548,-298.828,-438.477,-509.277,253.906,Default
1614036454.552,-858.398,-900.391,-666.992,-1000.000,Default
1614036454.556,248.535,253.418,-595.703,-272.949,Default
1614036454.560,-1000.000,-1000.000,-456.543,-854.980,Default
1614036454.564,-784.180,-949.707,-483.398,738.770,Default
1614036454.568,867.676,631.348,-670.898,-899.902,Default
1614036454.572,471.680,585.449,-632.324,-689.941,Default
1614036454.576,-1000.000,-957.520,-482.910,884.766,Default
1614036454.580,-1000.000,-1000.000,-425.293,-867.676,Default
1614036454.584,181.152,-11.719,-639.648,-159.668,Default
1614036454.588,948.242,-949.707,-599.609,-1000.000,Default
1614036454.591,-565.430,-336.426,-534.180,178.223,Default
1614036454.595,-1000.000,-1000.000,-423.340,-750.000,Default
1614036454.599,-195.801,-209.473,-654.297,187.500,Default
1614036454.603,-865.234,-845.215,-653.809,-1000.000,Default
1614036454.607,41.016,194.824,-623.535,-276.367,Default
1614036454.611,-1000.000,-1000.000,-445.801,-801.758,Default
1614036454.615,-428.711,-569.824,-504.883,426.270,Default
1614036454.619,-899.414,-949.219,-669.922,-1000.000,Default
1614036454.623,257.324,269.043,-651.367,-381.836,Default
1614036454.627,-1000.000,-1000.000,-466.309,-919.922,Default
1614036454.630,-908.203,-1000.000,-363.770,900.391,Default
1614036454.634,699.219,384.277,-601.074,-663.086,Default
1614036454.638,586.914,722.656,-676.758,-864.258,Default
1614036454.642,-955.566,-846.680,-511.719,696.289,Default
1614036454.646,-1000.000,-1000.000,-423.340,-814.941,Default
1614036454.650,5.859,-152.344,-684.570,33.691,Default
1614036454.654,-964.844,-896.484,-669.434,-1000.000,Default
1614036454.658,-377.441,-142.090,-529.785,-22.461,Default
1614036454.662,-1000.000,-1000.000,-387.695,-755.859,Default
1614036454.666,-212.402,-261.719,-613.770,201.172,Default
1614036454.670,-843.750,-850.098,-645.020,-1000.000,Default
1614036454.673,236.816,247.070,-581.543,-276.855,Default
1614036454.677,-1000.000,-1000.000,-287.598,-812.988,Default
1614036454.681,-547.852,-729.004,-433.594,527.344,Default
1614036454.685,-929.688,920.898,-720.703,-1000.000,Default
1614036454.689,255.371,375.488,-634.766,-477.539,Default
1614036454.693,-1000.000,-1000.000,-514.160,999.512,Default
1614036454.697,-1000.000,-1000.000,-512.695,-948.242,Default
1614036454.701,482.910,202.637,-691.406,-356.934,Default
1614036454.705,687.500,864.746,-646.484,-1000.000,Default
1614036454.709,-891.113,-672.363,-524.414,417.969,Default
1614036454.713,-1000.000,-1000.000,-441.895,-769.531,Default
1614036454.716,-178.223,-195.801,-669.434,175.293,Default
1614036454.720,-882.812,-867.676,-570.801,-1000.000,Default
1614036454.724,-98.145,24.414,-482.910,-165.527,Default
1614036454.728,-1000.000,-1000.000,-437.988,-768.066,Default
1614036454.732,-220.215,-369.629,-585.938,213.379,Default
1614036454.736,-833.984,-875.488,-621.094,-1000.000,Default
1614036454.740,245.605,248.047,-622.070,-269.043,Default
1614036454.744,-1000.000,-1000.000,-500.488,-847.656,Default
1614036454.748,-643.555,-892.090,-484.863,698.242,Default
1614036454.752,-978.516,719.727,-659.180,-950.684,Default
1614036454.755,356.445,516.113,-656.250,-638.184,Default
1614036454.759,-1000.000,-993.164,-529.297,912.109,Default
1614036454.763,-1000.000,-1000.000,-459.961,-879.395,Default
1614036454.767,229.492,57.617,-639.160,-165.039,Default
1614036454.771,868.652,989.258,-660.645,-1000.000,Default
1614036454.775,-678.223,-461.914,-558.594,180.176,Default
1614036454.779,-1000.000,-1000.000,-354.492,-750.488,Default
1614036454.783,-197.754,-204.102,-555.176,187.012,Default
1614036454.787,-863.281,-852.051,-671.387,-1000.000,Default
1614036454.791,36.621,139.648,-596.680,-273.438,Default
1614036454.795,-1000.000,-1000.000,-413.574,-793.945,Default
1614036454.798,-332.520,-492.676,-532.715,341.309,Default
1614036454.802,-859.375,-916.016,-671.875,-1000.000,Default
1614036454.806,249.023,252.930,-634.766,-274.902,Default
1614036454.810,-1000.000,-1000.000,-395.020,-871.094,Default
1614036454.814,-810.547,-1000.000,-403.320,818.359,Default
1614036454.818,834.961,524.414,-670.898,-779.297,Default
1614036454.822,478.516,634.766,-677.246,-760.742,Default
1614036454.826,-1000.000,-926.758,-368.652,814.941,Default
1614036454.830,-1000.000,-1000.000,-246.094,-844.727,Default
1614036454.834,76.660,-77.148,-701.172,-74.219,Default
1614036454.837,983.887,-931.152,-647.949,-1000.000,Default
1614036454.841,-483.398,-270.996,-497.070,89.844,Default
1614036454.845,-1000.000,-1000.000,-458.984,-750.488,Default
1614036454.849,-205.566,-211.426,-688.477,192.871,Default
1614036454.853,-850.098,-841.797,-632.324,-1000.000,Default
1614036454.857,143.066,215.820,-574.707,-275.879,Default
1614036454.861,-1000.000,-1000.000,-426.270,-801.758,Default
1614036454.865,-441.406,-610.840,-518.555,430.176,Default
1614036454.869,-890.137,-975.586,-619.629,-1000.000,Default
1614036454.873,248.047,297.852,-563.477,-378.906,Default
1614036454.877,-1000.000,-1000.000,-485.840,-927.246,Default
1614036454.880,-973.145,-1000.000,-466.309,925.781,Default
1614036454.884,600.098,335.449,-670.410,-612.793,Default
1614036454.888,594.238,755.859,-649.414,-895.020,Default
1614036454.892,-952.637,-812.500,-512.207,660.645,Default
1614036454.896,-1000.000,-1000.000,-430.176,-808.105,Default
1614036454.900,-76.172,-168.945,-660.156,41.992,Default
1614036454.904,-901.855,-888.184,-646.973,-1000.000,Default
1614036454.908,-232.910,-99.121,-533.203,-32.227,Default
1614036454.912,-1000.000,-1000.000,-386.230,-756.348,Default
1614036454.916,-215.332,-287.598,-532.227,202.148,Default
1614036454.920,-838.867,-856.445,-597.656,-1000.000,Default
1614036454.923,246.582,247.559,-654.785,-276.855,Default
1614036454.927,-1000.000,-1000.000,-446.777,-813.477,Default
1614036454.931,-572.266,-773.438,-479.980,527.344,Default
1614036454.935,-940.430,872.070,-696.777,-1000.000,Default
1614036454.939,248.535,410.156,-675.293,-476.562,Default
1614036454.943,-1000.000,-1000.000,-451.660,997.070,Default
1614036454.947,-1000.000,-1000.000,-395.996,-941.406,Default
1614036454.951,316.895,169.434,-669.434,-347.168,Default
1614036454.955,777.344,899.414,-660.645,-1000.000,Default
1614036454.959,-798.828,-620.117,-461.914,429.199,Default
1614036454.962,-1000.000,-1000.000,-265.625,-770.508,Default
1614036454.966,-189.941,-196.777,-645.508,166.992,Default
1614036454.970,-878.906,-865.234,-691.895,-1000.000,Default
1614036454.974,-72.266,44.434,-569.824,-164.062,Default
1614036454.978,-1000.000,-1000.000,-456.055,-769.043,Default
1614036454.982,-222.168,-404.785,-611.816,213.379,Default
1614036454.986,-832.520,-888.184,-654.297,-1000.000,Default
1614036454.990,237.793,250.488,-612.305,-270.020,Default
1614036454.994,-1000.000,-1000.000,-455.078,-844.727,Default
1614036454.998,-758.301,-925.293,-462.891,684.570,Default
1614036455.002,897.949,669.922,-667.480,-962.402,Default
1614036455.005,399.414,549.805,-622.070,-656.250,Default
1614036455.009,-1000.000,-976.562,-506.836,896.484,Default
1614036455.013,-1000.000,-1000.000,-480.957,-872.559,Default
1614036455.017,175.781,20.020,-693.848,-158.203,Default
1614036455.021,950.195,-975.586,-575.684,-1000.000,Default
1614036455.025,-565.430,-394.043,-451.172,179.688,Default
1614036455.029,-1000.000,-1000.000,-477.051,-749.512,Default
1614036455.033,-195.801,-207.520,-665.039,187.500,Default
1614036455.037,-862.793,-848.145,-607.422,-1000.000,Default
1614036455.041,38.086,176.758,-579.102,-274.902,Default
1614036455.044,-1000.000,-1000.000,-437.988,-800.781,Default
1614036455.048,-369.629,-537.598,-490.234,393.555,Default
1614036455.052,-874.023,-934.082,-591.309,-1000.000,Default
1614036455.056,248.047,268.066,-664.551,-379.395,Default
1614036455.060,-1000.000,-1000.000,-496.094,-913.086,Default
1614036455.064,-895.020,-1000.000,-467.285,870.605,Default
1614036455.068,718.262,452.148,-691.895,-714.355,Default
1614036455.072,586.914,699.707,-652.344,-843.750,Default
1614036455.076,-959.961,-869.141,-514.648,726.074,Default
1614036455.080,-1000.000,-1000.000,-442.383,-822.754,Default
1614036455.084,52.246,-124.023,-680.176,-41.992,Default
1614036455.087,-956.055,-910.156,-647.949,-1000.000,Default
1614036455.091,-382.812,-193.359,-550.781,66.406,Default
1614036455.095,-1000.000,-1000.000,-311.523,-750.000,Default
1614036455.099,-205.566,-240.234,-497.559,194.336,Default
1614036455.103,-850.098,-846.680,-663.086,-1000.000,Default
1614036455.107,144.531,235.352,-603.027,-277.344,Default
1614036455.111,-1000.000,-1000.000,-384.766,-811.523,Default
1614036455.115,-520.020,-666.016,-464.844,512.695,Default
1614036455.119,-930.176,980.957,-684.570,-1000.000,Default
1614036455.123,257.812,343.262,-624.023,-475.098,Default
1614036455.127,-1000.000,-1000.000,-437.012,-972.168,Default
1614036455.130,-1000.000,-1000.000,-452.637,980.957,Default
1614036455.134,515.625,283.691,-694.336,-522.949,Default
1614036455.138,690.430,813.477,-604.492,-979.004,Default
1614036455.142,-896.973,-744.141,-389.160,554.688,Default
1614036455.146,-1000.000,-1000.000,-403.809,-788.574,Default
1614036455.150,-77.637,-184.570,-714.355,62.988,Default
1614036455.154,-879.883,-880.859,-670.898,-1000.000,Default
1614036455.158,-187.988,-53.711,-566.406,-47.852,Default
1614036455.162,-1000.000,-1000.000,-466.797,-756.348,Default
1614036455.166,-216.309,-327.148,-632.324,203.125,Default
1614036455.169,-838.867,-868.164,-635.742,-1000.000,Default
1614036455.173,248.047,251.953,-632.324,-278.320,Default
1614036455.177,-1000.000,-1000.000,-465.820,-816.895,Default
1614036455.181,-624.023,-795.898,-473.145,574.707,Default
1614036455.185,963.379,766.113,-641.602,-1000.000,Default
1614036455.189,259.277,380.859,-622.070,-468.262,Default
1614036455.193,-1000.000,-1000.000,-446.289,945.312,Default
1614036455.197,-1000.000,-1000.000,-409.668,-903.320,Default
1614036455.201,306.641,122.070,-606.445,-284.180,Default
1614036455.205,833.008,947.266,-577.148,-1000.000,Default
1614036455.209,-735.352,-543.457,-553.223,370.117,Default
1614036455.212,-1000.000,-1000.000,-454.590,-764.160,Default
1614036455.216,-187.012,-199.219,-671.387,180.664,Default
1614036455.220,-883.789,-859.863,-668.945,-1000.000,Default
1614036455.224,-65.918,79.102,-612.305,-195.801,Default
1614036455.228,-1000.000,-1000.000,-422.852,-834.473,Default
1614036455.232,-321.777,-450.195,-520.996,210.938,Default
1614036455.236,-866.211,-904.297,-661.621,-1000.000,Default
1614036455.240,252.441,253.418,-672.852,-277.344,Default
1614036455.244,-1000.000,-1000.000,-402.832,-857.910,Default
1614036455.248,-784.180,-966.309,-331.543,753.906,Default
1614036455.251,867.676,603.027,-678.223,-882.812,Default
1614036455.255,479.492,607.422,-650.879,-688.965,Default
1614036455.259,-1000.000,-941.895,-456.543,879.883,Default
1614036455.263,-1000.000,-1000.000,-428.711,-860.840,Default
1614036455.267,177.734,-44.922,-687.500,-93.262,Default
1614036455.271,947.266,-942.871,-649.902,-1000.000,Default
1614036455.275,-565.918,-310.059,-509.766,115.723,Default
1614036455.279,-1000.000,-1000.000,-423.828,-750.000,Default
1614036455.283,-202.148,-210.938,-649.414,191.406,Default
1614036455.287,-856.934,-843.262,-639.648,-1000.000,Default
1614036455.291,104.492,210.449,-522.461,-276.367,Default
1614036455.294,-1000.000,-1000.000,-378.906,-801.758,Default
1614036455.298,-437.012,-576.660,-559.082,430.176,Default
1614036455.302,-894.531,-949.707,-646.973,-1000.000,Default
1614036455.306,255.859,283.691,-606.934,-380.859,Default
1614036455.310,-1000.000,-1000.000,-524.414,-923.340,Default
1614036455.314,-908.203,-1000.000,-532.227,913.574,Default
1614036455.318,699.219,372.070,-640.625,-647.461,Default
1614036455.322,586.914,735.840,-582.520,-854.004,Default
1614036455.326,-956.543,-833.984,-488.281,712.891,Default
1614036455.330,-1000.000,-1000.000,-455.078,-815.430,Default
1614036455.334,7.324,-151.367,-637.695,25.391,Default
1614036455.337,-951.660,-893.066,-572.754,-1000.000,Default
1614036455.341,-355.957,-135.254,-555.176,5.859,Default
1614036455.345,-1000.000,-1000.000,-443.848,-752.441,Default
1614036455.349,-210.449,-256.836,-621.582,198.730,Default
1614036455.353,-844.727,-848.145,-656.250,-1000.000,Default
1614036455.357,211.914,243.652,-629.395,-277.344,Default
1614036455.361,-1000.000,-1000.000,-442.871,-812.988,Default
1614036455.365,-543.945,-715.332,-479.492,527.344,Default
1614036455.369,-932.617,936.035,-672.363,-1000.000,Default
1614036455.373,258.789,382.324,-634.766,-486.328,Default
1614036455.376,-1000.000,-1000.000,-447.266,-979.980,Default
1614036455.380,-1000.000,-1000.000,-335.449,996.094,Default
1614036455.384,516.113,222.168,-589.844,-488.770,Default
1614036455.388,686.523,868.164,-682.129,-1000.000,Default
1614036455.392,-893.066,-669.434,-508.301,506.836,Default
1614036455.396,-1000.000,-1000.000,-406.250,-784.180,Default
1614036455.400,-142.090,-192.383,-690.430,95.703,Default
1614036455.404,-888.672,-873.047,-680.664,-1000.000,Default
1614036455.408,-152.832,-7.812,-557.617,-98.145,Default
1614036455.412,-1000.000,-1000.000,-397.949,-763.184,Default
1614036455.416,-216.797,-361.816,-585.938,208.008,Default
1614036455.419,-837.402,-876.465,-646.484,-1000.000,Default
1614036455.423,245.605,250.000,-572.266,-275.391,Default
1614036455.427,-1000.000,-1000.000,-384.277,-827.637,Default
1614036455.431,-643.555,-870.117,-479.980,617.188,Default
1614036455.435,-979.004,749.023,-706.055,-1000.000,Default
1614036455.439,357.422,511.230,-595.215,-580.566,Default
1614036455.443,-1000.000,-993.652,-436.523,942.383,Default
1614036455.447,-1000.000,-1000.000,-493.652,-896.973,Default
1614036455.451,251.953,67.383,-684.570,-226.562,Default
1614036455.455,828.613,975.586,-639.160,-1000.000,Default
1614036455.458,-732.910,-485.352,-523.926,260.254,Default
1614036455.462,-1000.000,-1000.000,-443.359,-758.301,Default
1614036455.466,-199.219,-204.590,-674.316,186.035,Default
1614036455.470,-864.258,-852.539,-565.430,-1000.000,Default
1614036455.474,36.621,143.066,-505.371,-272.949,Default
1614036455.478,-1000.000,-1000.000,-480.957,-793.457,Default
1614036455.482,-332.031,-488.281,-558.594,327.637,Default
1614036455.486,-858.887,-913.574,-612.793,-1000.000,Default
1614036455.490,246.582,250.977,-628.418,-271.973,Default
1614036455.494,-1000.000,-1000.000,-509.766,-875.000,Default
1614036455.498,-832.520,-1000.000,-487.793,822.754,Default
1614036455.501,805.664,512.695,-660.645,-755.371,Default
1614036455.505,481.934,644.043,-651.855,-821.289,Default
1614036455.509,-1000.000,-920.898,-537.598,746.094,Default
1614036455.513,-1000.000,-1000.000,-436.523,-828.125,Default
1614036455.517,48.828,-90.332,-604.004,-48.340,Default
1614036455.521,-966.797,-911.621,-646.973,-1000.000,Default
1614036455.525,-402.832,-225.586,-555.176,67.383,Default
1614036455.529,-1000.000,-1000.000,-422.852,-750.000,Default
1614036455.533,-205.566,-216.309,-616.211,194.336,Default
1614036455.537,-847.656,-840.332,-624.512,-1000.000,Default
1614036455.540,143.555,224.121,-589.844,-277.344,Default
1614036455.544,-1000.000,-1000.000,-402.832,-809.082,Default
1614036455.548,-443.848,-630.859,-486.816,496.094,Default
1614036455.552,-890.625,-990.723,-685.547,-1000.000,Default
1614036455.556,245.117,308.594,-639.160,-440.430,Default
1614036455.560,-1000.000,-1000.000,-443.359,-965.820,Default
1614036455.564,-1000.000,-1000.000,-435.059,992.676,Default
1614036455.568,550.293,311.523,-666.016,-494.629,Default
1614036455.572,663.574,799.805,-650.879,-982.910,Default
1614036455.576,-912.109,-763.672,-419.922,554.688,Default
1614036455.580,-1000.000,-1000.000,-330.566,-788.086,Default
1614036455.583,-79.590,-175.781,-712.891,62.988,Default
1614036455.587,-879.395,-878.906,-636.230,-1000.000,Default
1614036455.591,-187.988,-62.500,-523.926,-48.340,Default
1614036455.595,-1000.000,-1000.000,-472.656,-756.348,Default
1614036455.599,-216.309,-300.781,-650.391,203.125,Default
1614036455.603,-837.891,-858.398,-610.352,-1000.000,Default
1614036455.607,246.094,248.047,-536.621,-276.367,Default
1614036455.611,-1000.000,-1000.000,-472.168,-826.660,Default
1614036455.615,-601.562,-787.598,-534.180,609.375,Default
1614036455.619,-957.520,855.469,-629.395,-1000.000,Default
1614036455.623,287.598,441.406,-564.941,-582.031,Default
1614036455.626,-1000.000,-1000.000,-537.109,945.801,Default
1614036455.630,-1000.000,-1000.000,-519.531,-899.414,Default
1614036455.634,304.688,149.414,-671.875,-288.574,Default
1614036455.638,834.473,937.500,-639.648,-1000.000,Default
1614036455.642,-735.352,-564.453,-530.762,370.117,Default
1614036455.646,-1000.000,-1000.000,-472.168,-764.160,Default
1614036455.650,-187.012,-198.730,-657.227,178.711,Default
1614036455.654,-878.906,-860.352,-614.746,-1000.000,Default
1614036455.658,-71.777,70.801,-554.688,-210.449,Default
1614036455.662,-1000.000,-1000.000,-436.035,-777.344,Default
1614036455.665,-228.516,-419.922,-501.953,299.805,Default
1614036455.669,-834.473,-891.602,-547.363,-1000.000,Default
1614036455.673,237.305,251.465,-626.953,-277.344,Default
1614036455.677,-1000.000,-1000.000,-495.117,-855.469,Default
1614036455.681,-784.180,-933.105,-492.676,753.906,Default
1614036455.685,869.629,656.738,-685.059,-881.836,Default
1614036455.689,450.195,572.266,-652.344,-693.359,Default
1614036455.693,-1000.000,-965.332,-491.699,886.230,Default
1614036455.697,-1000.000,-1000.000,-450.684,-868.164,Default
1614036455.701,179.688,8.301,-658.203,-158.203,Default
1614036455.705,948.730,-951.172,-629.883,-1000.000,Default
1614036455.708,-565.430,-348.633,-479.492,168.945,Default
1614036455.712,-1000.000,-1000.000,-322.266,-750.488,Default
1614036455.716,-195.801,-209.473,-640.137,187.988,Default
1614036455.720,-862.793,-845.215,-661.133,-1000.000,Default
1614036455.724,38.086,191.406,-540.527,-274.414,Default
1614036455.728,-1000.000,-1000.000,-449.219,-798.828,Default
1614036455.732,-364.258,-537.598,-583.008,379.883,Default
1614036455.736,-873.047,-934.082,-655.273,-1000.000,Default
1614036455.740,252.441,267.578,-624.512,-357.422,Default
1614036455.744,-1000.000,-1000.000,-481.934,-886.230,Default
1614036455.747,-853.516,-988.281,-454.590,810.547,Default
1614036455.751,788.574,549.805,-666.992,-810.059,Default
1614036455.755,555.176,668.945,-581.543,-801.270,Default
1614036455.759,-972.656,-890.137,-431.152,761.719,Default
1614036455.763,-1000.000,-1000.000,-490.234,-833.008,Default
1614036455.767,50.293,-114.746,-684.570,-47.363,Default
1614036455.771,-955.078,-905.762,-617.188,-1000.000,Default
1614036455.775,-382.812,-192.383,-526.367,67.383,Default
1614036455.779,-1000.000,-1000.000,-480.957,-750.000,Default
1614036455.783,-205.566,-234.863,-648.438,194.336,Default
1614036455.787,-850.098,-844.727,-604.492,-1000.000,Default
1614036455.790,145.020,234.375,-604.980,-277.344,Default
1614036455.794,-1000.000,-1000.000,-451.660,-809.570,Default
1614036455.798,-519.043,-665.039,-459.473,495.605,Default
1614036455.802,-929.688,981.445,-589.355,-1000.000,Default
1614036455.806,257.324,337.402,-646.973,-456.055,Default
1614036455.810,-1000.000,-1000.000,-494.629,-972.656,Default
1614036455.814,-1000.000,-1000.000,-468.262,995.605,Default
1614036455.818,516.113,281.250,-687.500,-495.605,Default
1614036455.822,690.430,813.965,-653.809,-982.422,Default
1614036455.826,-896.973,-744.141,-515.625,554.199,Default
1614036455.830,-1000.000,-1000.000,-431.152,-788.086,Default
1614036455.833,-77.637,-187.012,-673.340,62.988,Default
1614036455.837,-879.883,-876.953,-640.137,-1000.000,Default
1614036455.841,-188.477,-36.133,-576.660,-49.316,Default
1614036455.845,-1000.000,-1000.000,-286.133,-756.836,Default
1614036455.849,-216.309,-330.078,-411.133,203.125,Default
1614036455.853,-838.867,-867.188,-684.570,-1000.000,Default
1614036455.857,246.094,250.488,-627.441,-276.367,Default
1614036455.861,-1000.000,-1000.000,-477.051,-826.660,Default
1614036455.865,-643.555,-816.895,-521.484,609.863,Default
1614036455.869,-980.469,819.336,-681.641,-1000.000,Default
1614036455.872,364.258,479.004,-624.023,-582.031,Default
1614036455.876,-1000.000,-1000.000,-472.168,945.801,Default
1614036455.880,-1000.000,-1000.000,-490.234,-899.414,Default
1614036455.884,261.230,111.328,-681.152,-288.574,Default
1614036455.888,739.746,937.500,-580.566,-1000.000,Default
1614036455.892,-728.516,-528.320,-438.965,370.117,Default
1614036455.896,-1000.000,-1000.000,-449.219,-766.602,Default
1614036455.900,-189.941,-201.172,-710.938,182.129,Default
1614036455.904,-883.789,-857.910,-607.422,-1000.000,Default
1614036455.908,-65.918,91.309,-506.836,-252.930,Default
1614036455.912,-1000.000,-1000.000,-510.254,-788.086,Default
1614036455.915,-321.777,-453.613,-628.418,324.707,Default
1614036455.919,-868.164,-906.250,-634.277,-1000.000,Default
1614036455.923,259.277,260.742,-621.094,-286.621,Default
1614036455.927,-1000.000,-1000.000,-505.371,-835.449,Default
1614036455.931,-727.539,-906.738,-501.953,697.266,Default
1614036455.935,955.566,696.289,-639.648,-971.191,Default
1614036455.939,468.750,601.562,-615.723,-677.734,Default
1614036455.943,-1000.000,-939.453,-496.582,878.418,Default
1614036455.947,-1000.000,-1000.000,-467.773,-861.328,Default
1614036455.951,182.129,-41.016,-609.375,-83.496,Default
1614036455.954,947.754,-940.430,-562.988,-1000.000,Default
1614036455.958,-566.406,-307.129,-560.059,108.887,Default
1614036455.962,-1000.000,-1000.000,-477.051,-750.000,Default
1614036455.966,-202.637,-210.938,-666.504,191.406,Default
1614036455.970,-856.934,-842.773,-648.438,-1000.000,Default
1614036455.974,106.445,209.961,-605.469,-276.367,Default
1614036455.978,-1000.000,-1000.000,-466.309,-802.246,Default
1614036455.982,-437.012,-572.266,-507.812,430.664,Default
1614036455.986,-894.531,-947.266,-632.324,-1000.000,Default
1614036455.990,257.812,290.039,-654.785,-391.113,Default
1614036455.994,-1000.000,-1000.000,-409.180,-930.664,Default
1614036455.997,-890.137,-1000.000,-335.449,919.922,Default
1614036456.001,643.066,354.004,-685.547,-609.863,Default
1614036456.005,498.047,698.242,-641.602,-931.641,Default
1614036456.009,-944.824,-818.848,-467.773,607.910,Default
1614036456.013,-1000.000,-1000.000,-445.801,-798.828,Default
1614036456.017,-15.625,-157.715,-699.219,65.918,Default
1614036456.021,-937.988,-885.742,-646.484,-1000.000,Default
1614036456.025,-354.492,-147.461,-531.250,-29.297,Default
1614036456.029,-1000.000,-1000.000,-471.680,-812.500,Default
1614036456.033,-125.488,-175.293,-636.719,114.746,Default
1614036456.037,-852.539,-860.352,-628.906,-1000.000,Default
1614036456.040,246.582,247.559,-534.668,-276.855,Default
1614036456.044,-1000.000,-1000.000,-390.137,-820.312,Default
1614036456.048,-549.316,-727.051,-545.410,556.152,Default
1614036456.052,-929.199,924.316,-674.805,-1000.000,Default
1614036456.056,256.348,398.438,-612.305,-521.973,Default
1614036456.060,-1000.000,-1000.000,-520.996,975.098,Default
1614036456.064,-1000.000,-1000.000,-528.320,-926.758,Default
1614036456.068,499.023,203.613,-639.160,-324.219,Default
1614036456.072,687.500,876.953,-582.031,-1000.000,Default
1614036456.076,-889.648,-656.738,-512.207,388.184,Default
1614036456.079,-1000.000,-1000.000,-458.984,-764.648,Default
1614036456.083,-179.688,-195.312,-622.559,175.293,Default
1614036456.087,-882.324,-867.188,-566.406,-1000.000,Default
1614036456.091,-93.750,25.391,-586.914,-165.527,Default
1614036456.095,-1000.000,-1000.000,-504.883,-768.066,Default
1614036456.099,-220.703,-368.164,-621.094,217.773,Default
1614036456.103,-833.984,-875.000,-644.531,-1000.000,Default
1614036456.107,245.605,249.512,-635.742,-270.508,Default
1614036456.111,-1000.000,-1000.000,-498.535,-845.703,Default
1614036456.115,-643.555,-876.465,-500.488,690.430,Default
1614036456.119,-979.004,738.770,-640.625,-957.031,Default
1614036456.122,357.422,526.855,-602.051,-650.879,Default
1614036456.126,-1000.000,-986.328,-493.164,902.344,Default
1614036456.130,-1000.000,-1000.000,-391.602,-875.977,Default
1614036456.134,241.211,62.988,-582.520,-164.551,Default
1614036456.138,867.676,987.793,-662.109,-1000.000,Default
1614036456.142,-681.152,-465.332,-523.438,180.176,Default
1614036456.146,-1000.000,-1000.000,-427.246,-750.000,Default
1614036456.150,-198.242,-204.102,-689.941,187.500,Default
1614036456.154,-863.281,-851.562,-659.668,-1000.000,Default
1614036456.158,36.621,139.648,-560.547,-272.949,Default
1614036456.161,-1000.000,-1000.000,-426.270,-792.969,Default
1614036456.165,-332.031,-476.562,-565.918,327.637,Default
1614036456.169,-859.863,-908.203,-637.207,-1000.000,Default
1614036456.173,250.977,252.441,-566.406,-278.809,Default
1614036456.177,-1000.000,-1000.000,-382.812,-854.004,Default
1614036456.181,-784.180,-990.723,-458.984,753.418,Default
1614036456.185,869.141,560.547,-691.406,-882.812,Default
1614036456.189,474.121,627.441,-608.887,-689.941,Default
1614036456.193,-1000.000,-930.176,-474.609,881.348,Default
1614036456.197,-1000.000,-1000.000,-490.723,-862.793,Default
1614036456.201,90.332,-71.777,-685.059,-101.562,Default
1614036456.204,981.445,-930.664,-637.695,-1000.000,Default
1614036456.208,-491.211,-272.949,-535.156,108.887,Default
1614036456.212,-1000.000,-1000.000,-448.730,-750.977,Default
1614036456.216,-205.566,-211.914,-655.762,192.383,Default
1614036456.220,-850.098,-841.797,-564.941,-1000.000,Default
1614036456.224,143.066,218.262,-520.508,-276.367,Default
1614036456.228,-1000.000,-1000.000,-488.281,-801.758,Default
1614036456.232,-441.406,-601.562,-546.875,430.664,Default
1614036456.236,-890.625,-967.285,-645.508,-1000.000,Default
1614036456.240,249.512,295.898,-628.906,-380.371,Default
1614036456.244,-1000.000,-1000.000,-480.957,-923.828,Default
1614036456.247,-955.078,-1000.000,-451.660,912.109,Default
1614036456.251,625.977,339.355,-647.461,-623.535,Default
1614036456.255,604.492,762.695,-645.020,-918.945,Default
1614036456.259,-948.730,-806.641,-519.043,630.371,Default
1614036456.263,-1000.000,-1000.000,-397.949,-807.129,Default
1614036456.267,-58.594,-167.480,-614.746,25.391,Default
1614036456.271,-873.535,-877.930,-670.898,-1000.000,Default
1614036456.275,-191.406,-72.754,-578.125,-43.457,Default
1614036456.279,-1000.000,-1000.000,-406.250,-759.277,Default
1614036456.283,-216.797,-279.785,-584.961,204.102,Default
1614036456.286,-836.426,-851.562,-657.715,-1000.000,Default
1614036456.290,246.582,246.582,-629.395,-276.367,Default
1614036456.294,-1000.000,-1000.000,-436.523,-814.941,Default
1614036456.298,-551.270,-764.160,-460.449,540.527,Default
1614036456.302,-927.734,883.789,-648.926,-1000.000,Default
1614036456.306,245.605,412.598,-666.504,-480.957,Default
1614036456.310,-1000.000,-1000.000,-333.496,998.047,Default
1614036456.314,-1000.000,-1000.000,-218.262,-943.359,Default
1614036456.318,336.426,173.340,-673.340,-343.262,Default
1614036456.322,775.391,899.902,-659.180,-1000.000,Default
1614036456.326,-799.805,-620.605,-466.309,403.320,Default
1614036456.329,-1000.000,-1000.000,-432.129,-767.090,Default
1614036456.333,-189.941,-197.266,-713.867,174.805,Default
1614036456.337,-878.906,-864.258,-645.996,-1000.000,Default
1614036456.341,-72.266,48.828,-563.965,-165.039,Default
1614036456.345,-1000.000,-1000.000,-476.562,-768.066,Default
1614036456.349,-222.168,-398.926,-613.770,213.379,Default
1614036456.353,-832.520,-884.766,-620.605,-1000.000,Default
1614036456.357,240.723,250.977,-572.266,-269.043,Default
1614036456.361,-1000.000,-1000.000,-442.383,-847.656,Default
1614036456.365,-716.797,-910.156,-479.004,697.266,Default
1614036456.368,943.359,690.430,-624.512,-949.219,Default
1614036456.372,414.062,558.105,-536.621,-656.738,Default
1614036456.376,-1000.000,-971.191,-520.020,898.438,Default
1614036456.380,-1000.000,-1000.000,-508.301,-872.559,Default
1614036456.384,179.688,30.273,-674.316,-157.715,Default
1614036456.388,942.871,-979.492,-652.344,-1000.000,Default
1614036456.392,-572.266,-401.367,-538.574,177.734,Default
1614036456.396,-1000.000,-1000.000,-460.938,-742.676,Default
1614036456.400,-179.199,-188.477,-666.504,170.410,Default
1614036456.404,-911.133,-904.785,-614.746,-1000.000,Default
1614036456.408,-69.336,81.543,-562.988,-167.969,Default
1614036456.411,-1000.000,-1000.000,-476.074,-864.258,Default
1614036456.415,-263.184,-525.879,-503.418,290.527,Default
1614036456.419,-878.906,-931.641,-558.105,-1000.000,Default
1614036456.423,243.164,254.883,-645.996,-319.824,Default
1614036456.427,-1000.000,-1000.000,-491.211,-897.461,Default
1614036456.431,-910.156,-1000.000,-467.285,865.234,Default
1614036456.435,700.195,470.703,-691.895,-708.496,Default
1614036456.439,567.383,681.641,-653.320,-833.496,Default
1614036456.443,-972.168,-888.184,-479.980,741.211,Default
1614036456.447,-1000.000,-1000.000,-427.734,-826.172,Default
1614036456.451,50.781,-113.281,-653.809,-48.828,Default
1614036456.454,-955.078,-903.809,-628.906,-1000.000,Default
1614036456.458,-382.812,-189.941,-495.605,65.430,Default
1614036456.462,-1000.000,-1000.000,-338.379,-743.164,Default
1614036456.466,-205.566,-232.422,-635.254,176.270,Default
1614036456.470,-850.098,-843.750,-661.133,-1000.000,Default
1614036456.474,144.531,233.887,-583.008,-189.453,Default
1614036456.478,-1000.000,-1000.000,-474.121,-822.754,Default
1614036456.482,-516.113,-664.551,-560.547,515.137,Default
1614036456.486,-927.734,982.422,-670.410,-1000.000,Default
1614036456.490,256.836,342.773,-616.699,-483.887,Default
1614036456.493,-1000.000,-1000.000,-503.906,-981.934,Default
1614036456.497,-1000.000,-1000.000,-478.516,999.512,Default
1614036456.501,516.113,276.367,-665.039,-498.047,Default
1614036456.505,690.430,840.332,-566.406,-980.957,Default
1614036456.509,-896.973,-711.426,-438.477,553.711,Default
1614036456.513,-1000.000,-1000.000,-507.812,-790.527,Default
1614036456.517,-77.637,-185.547,-687.500,86.914,Default
1614036456.521,-879.883,-874.023,-622.559,-1000.000,Default
1614036456.525,-187.988,-28.320,-567.383,-104.492,Default
1614036456.529,-1000.000,-1000.000,-501.953,-765.625,Default
1614036456.533,-216.309,-329.102,-616.211,209.473,Default
1614036456.536,-838.867,-866.211,-603.027,-1000.000,Default
1614036456.540,246.094,249.512,-613.770,-275.391,Default
1614036456.544,-1000.000,-1000.000,-481.934,-827.637,Default
1614036456.548,-643.555,-818.848,-462.891,617.188,Default
1614036456.552,-979.980,816.895,-586.914,-1000.000,Default
1614036456.556,361.816,482.910,-639.160,-582.520,Default
1614036456.560,-1000.000,-1000.000,-534.668,945.312,Default
1614036456.564,-1000.000,-1000.000,-499.023,-900.391,Default
1614036456.568,309.570,121.582,-662.109,-256.836,Default
1614036456.572,832.520,962.402,-634.277,-1000.000,Default
1614036456.575,-735.840,-520.996,-517.578,296.387,Default
1614036456.579,-1000.000,-1000.000,-445.312,-761.230,Default
1614036456.583,-189.453,-201.172,-678.711,184.082,Default
1614036456.587,-878.418,-856.445,-622.070,-1000.000,Default
1614036456.591,-45.410,100.098,-570.312,-258.789,Default
1614036456.595,-1000.000,-1000.000,-325.195,-789.551,Default
1614036456.599,-305.664,-446.289,-406.738,325.195,Default
1614036456.603,-858.887,-899.902,-648.438,-1000.000,Default
1614036456.607,249.023,252.930,-637.695,-279.297,Default
1614036456.611,-1000.000,-1000.000,-400.879,-854.004,Default
1614036456.615,-784.180,-953.613,-426.758,753.418,Default
1614036456.618,867.676,624.023,-696.777,-882.812,Default
1614036456.622,479.980,603.027,-614.258,-689.941,Default
1614036456.626,-1000.000,-945.801,-495.605,881.348,Default
1614036456.630,-1000.000,-1000.000,-506.348,-861.816,Default
1614036456.634,180.176,-31.738,-691.895,-108.887,Default
1614036456.638,955.078,-940.430,-577.637,-1000.000,Default
1614036456.642,-584.473,-311.523,-452.637,156.738,Default
1614036456.646,-1000.000,-1000.000,-459.473,-805.664,Default
1614036456.650,-113.770,-210.938,-673.828,101.562,Default
1614036456.654,-867.676,-842.773,-572.266,-1000.000,Default
1614036456.658,99.121,208.984,-526.855,-275.391,Default
1614036456.661,-1000.000,-1000.000,-513.184,-802.246,Default
1614036456.665,-420.410,-555.176,-573.730,397.949,Default
1614036456.669,-890.137,-940.430,-633.789,-1000.000,Default
1614036456.673,261.719,277.832,-632.812,-364.258,Default
1614036456.677,-1000.000,-1000.000,-489.258,-890.625,Default
1614036456.681,-833.984,-996.582,-471.191,824.219,Default
1614036456.685,730.469,466.309,-651.855,-782.715,Default
1614036456.689,490.723,648.926,-616.211,-834.473,Default
1614036456.693,-947.754,-842.773,-487.305,722.656,Default
1614036456.697,-1000.000,-1000.000,-466.309,-815.918,Default
1614036456.700,67.871,-124.512,-603.027,-39.551,Default
1614036456.704,987.793,-954.590,-568.359,-1000.000,Default
1614036456.708,-471.191,-243.164,-561.035,143.555,Default
1614036456.712,-1000.000,-1000.000,-439.453,-760.254,Default
1614036456.716,-210.938,-251.465,-628.418,196.777,Default
1614036456.720,-848.145,-850.098,-654.785,-1000.000,Default
1614036456.724,209.961,241.699,-634.766,-259.277,Default
1614036456.728,-1000.000,-1000.000,-481.445,-869.629,Default
1614036456.732,-543.945,-694.824,-497.070,438.477,Default
1614036456.736,-932.617,956.543,-653.320,-1000.000,Default
1614036456.740,258.789,374.512,-671.875,-486.328,Default
1614036456.743,-1000.000,-1000.000,-409.668,-982.910,Default
1614036456.747,-1000.000,-1000.000,-312.012,999.512,Default
1614036456.751,514.648,232.910,-687.500,-496.094,Default
1614036456.755,694.336,860.352,-662.598,-986.816,Default
1614036456.759,-912.109,-708.008,-500.977,570.801,Default
1614036456.763,-1000.000,-1000.000,-461.426,-844.727,Default
1614036456.767,-44.434,-104.492,-672.363,16.113,Default
1614036456.771,-897.949,-883.301,-626.953,-1000.000,Default
1614036456.775,-155.762,-5.859,-534.668,-102.051,Default
1614036456.779,-1000.000,-1000.000,-397.461,-765.625,Default
1614036456.782,-216.797,-351.562,-568.848,208.008,Default
1614036456.786,-837.402,-872.070,-657.715,-1000.000,Default
1614036456.790,246.094,250.000,-550.781,-275.391,Default
1614036456.794,-1000.000,-1000.000,-369.629,-827.637,Default
1614036456.798,-643.555,-851.562,-496.094,617.188,Default
1614036456.802,-979.492,774.414,-673.828,-1000.000,Default
1614036456.806,360.352,504.395,-615.723,-582.520,Default
1614036456.810,-1000.000,-996.582,-521.973,945.312,Default
1614036456.814,-1000.000,-1000.000,-518.555,-899.414,Default
1614036456.818,288.574,80.078,-664.062,-265.625,Default
1614036456.822,831.055,974.121,-605.469,-1000.000,Default
1614036456.825,-735.352,-491.699,-500.000,323.730,Default
1614036456.829,-1000.000,-1000.000,-447.754,-762.695,Default
1614036456.833,-196.289,-203.125,-629.883,183.594,Default
1614036456.837,-868.652,-853.027,-554.199,-1000.000,Default
1614036456.841,11.719,127.441,-583.496,-258.301,Default
1614036456.845,-1000.000,-1000.000,-482.422,-789.551,Default
1614036456.849,-329.590,-469.727,-572.266,325.195,Default
1614036456.853,-861.328,-906.738,-656.250,-1000.000,Default
1614036456.857,251.465,251.953,-647.949,-279.297,Default
1614036456.861,-1000.000,-1000.000,-479.004,-854.004,Default
1614036456.864,-784.180,-988.281,-463.867,753.418,Default
1614036456.868,868.652,565.430,-671.387,-882.812,Default
1614036456.872,475.586,627.441,-618.652,-689.941,Default
1614036456.876,-1000.000,-930.664,-496.582,881.348,Default
1614036456.880,-1000.000,-1000.000,-401.855,-862.793,Default
1614036456.884,110.840,-64.453,-591.309,-104.492,Default
1614036456.888,977.051,-930.176,-674.316,-1000.000,Default
1614036456.892,-503.906,-275.879,-549.316,114.258,Default
1614036456.896,-1000.000,-1000.000,-428.711,-750.977,Default
1614036456.900,-206.055,-211.914,-680.176,191.895,Default
1614036456.904,-850.586,-841.797,-664.062,-1000.000,Default
1614036456.907,143.066,216.309,-579.102,-276.367,Default
1614036456.911,-1000.000,-1000.000,-444.824,-801.758,Default
1614036456.915,-441.406,-589.844,-545.410,430.176,Default
1614036456.919,-891.602,-958.008,-646.484,-1000.000,Default
1614036456.923,253.418,295.898,-574.707,-383.301,Default
1614036456.927,-1000.000,-1000.000,-386.719,-916.992,Default
1614036456.931,-923.340,-1000.000,-456.055,891.113,Default
1614036456.935,676.758,352.539,-690.430,-667.969,Default
1614036456.939,585.449,752.441,-628.418,-883.789,Default
1614036456.943,-952.637,-816.895,-500.488,667.480,Default
1614036456.947,-1000.000,-1000.000,-472.656,-810.547,Default
1614036456.950,-76.172,-166.016,-693.359,42.480,Default
1614036456.954,-901.367,-885.254,-623.535,-1000.000,Default
1614036456.958,-232.422,-98.145,-551.270,-31.250,Default
1614036456.962,-1000.000,-1000.000,-458.984,-756.348,Default
1614036456.966,-215.332,-272.949,-610.840,202.148,Default
1614036456.970,-837.891,-850.586,-560.059,-1000.000,Default
1614036456.974,246.582,246.582,-534.668,-276.855,Default
1614036456.978,-1000.000,-1000.000,-497.559,-813.477,Default
1614036456.982,-549.316,-747.559,-522.461,527.344,Default
1614036456.986,-926.758,901.855,-640.137,-1000.000,Default
1614036456.989,246.582,409.180,-622.070,-479.980,Default
1614036456.993,-1000.000,-1000.000,-526.855,994.629,Default
1614036456.997,-1000.000,-1000.000,-485.840,-939.941,Default
1614036457.001,351.562,177.734,-645.508,-334.473,Default
1614036457.005,776.367,901.855,-649.902,-1000.000,Default
1614036457.009,-798.340,-619.141,-530.273,391.602,Default
1614036457.013,-1000.000,-1000.000,-391.113,-765.625,Default
1614036457.017,-189.453,-197.266,-567.383,175.293,Default
1614036457.021,-878.906,-864.746,-622.559,-1000.000,Default
1614036457.025,-72.266,46.387,-603.516,-167.969,Default
1614036457.029,-1000.000,-1000.000,-441.895,-767.578,Default
1614036457.032,-222.168,-399.902,-570.312,253.418,Default
1614036457.036,-832.520,-885.742,-647.461,-1000.000,Default
