timestamps,TP9,AF7,AF8,TP10,Marker0
0.005,-993.652,-1000.000,-534.180,902.832,0
0.009,-788.574,-957.031,-589.844,971.191,0
0.013,890.625,662.109,-539.551,-706.055,0
0.017,972.656,967.285,-507.324,-1000.000,0
0.020,-701.172,-735.840,-606.445,625.977,0
0.024,-1000.000,-1000.000,-611.328,-841.797,0
0.028,662.109,537.109,-537.109,-425.293,0
0.032,-935.547,980.469,-474.121,-1000.000,0
0.036,-604.492,-611.328,-563.965,458.984,0
0.040,-1000.000,-1000.000,-625.488,-780.762,0
0.044,457.031,-148.438,-571.289,354.980,0
0.048,-808.594,-956.543,-458.008,-1000.000,0
0.052,-39.062,-153.320,-542.969,-296.875,0
0.056,-1000.000,-1000.000,-646.973,-892.090,0
0.060,-245.117,-773.926,-583.984,842.773,0
0.063,-895.508,809.570,-433.105,-781.738,0
0.067,734.863,710.449,-507.324,-912.598,0
0.071,-899.902,-991.699,-625.977,835.938,0
0.075,-886.719,-986.328,-585.938,989.258,0
0.079,828.613,667.969,-439.453,-713.867,0
0.083,988.281,995.117,-480.957,-1000.000,0
0.087,-708.496,-665.527,-640.625,614.258,0
0.091,-1000.000,-1000.000,-612.793,-820.801,0
0.095,647.461,421.387,-476.562,-296.875,0
0.099,-897.949,-992.188,-464.844,-1000.000,0
0.102,-488.770,-541.016,-600.586,288.086,0
0.106,-1000.000,-1000.000,-616.699,-780.762,0
0.110,306.152,-410.156,-555.664,562.012,0
0.114,-792.969,984.375,-507.812,-991.211,0
0.118,177.246,42.969,-553.223,-519.531,0
0.122,-1000.000,-1000.000,-587.402,-963.379,0
0.126,-462.891,-864.258,-562.012,927.734,0
0.130,-971.680,716.797,-527.344,-698.242,0
0.134,857.422,835.938,-539.062,-985.840,0
0.138,-795.898,-916.016,-602.051,742.188,0
0.142,-975.586,-1000.000,-620.117,-937.012,0
0.145,757.812,677.734,-540.039,-631.836,0
0.149,-995.117,989.746,-498.535,-1000.000,0
0.153,-714.844,-645.996,-560.059,596.680,0
0.157,-1000.000,-1000.000,-599.609,-798.828,0
0.161,632.812,289.551,-542.480,-77.637,0
0.165,-864.258,-940.918,-480.957,-1000.000,0
0.169,-377.441,-416.504,-510.254,153.809,0
0.173,-1000.000,-1000.000,-597.656,-790.039,0
0.177,189.453,-582.031,-621.094,656.738,0
0.181,-792.969,935.547,-509.277,-930.176,0
0.185,409.668,307.129,-503.418,-727.051,0
0.188,-1000.000,-1000.000,-604.492,960.938,0
0.192,-679.688,-931.641,-618.164,953.613,0
0.196,940.918,665.527,-496.094,-696.777,0
0.200,958.008,917.480,-482.422,-1000.000,0
0.204,-692.871,-823.242,-612.793,643.555,0
0.208,-1000.000,-1000.000,-624.512,-883.301,0
0.212,678.711,619.141,-495.605,-538.574,0
0.216,-985.352,983.887,-373.535,-1000.000,0
0.220,-707.031,-626.465,-547.363,523.438,0
0.224,-1000.000,-1000.000,-652.832,-785.156,0
0.227,559.082,64.453,-524.902,142.578,0
0.231,-835.938,-935.059,-419.434,-1000.000,0
0.235,-257.812,-286.133,-574.707,-71.777,0
0.239,-1000.000,-1000.000,-640.625,-833.984,0
0.243,-23.438,-697.266,-547.363,751.953,0
0.247,-846.191,873.535,-496.582,-859.863,0
0.251,676.758,564.941,-535.645,-824.219,0
0.255,-934.570,-1000.000,-607.910,902.344,0
0.259,-805.664,-964.844,-514.648,971.191,0
0.263,896.484,661.133,-474.609,-706.055,0
0.267,971.191,985.840,-552.246,-1000.000,0
0.270,-701.172,-710.449,-602.051,627.441,0
0.274,-1000.000,-1000.000,-579.590,-846.680,0
0.278,663.086,534.668,-547.852,-413.574,0
0.282,-938.477,981.934,-532.715,-1000.000,0
0.286,-597.168,-604.004,-586.914,398.438,0
0.290,-1000.000,-1000.000,-621.582,-775.879,0
0.294,419.922,-193.848,-586.914,356.445,0
0.298,-806.152,-967.773,-524.414,-1000.000,0
0.302,-38.574,-132.812,-561.035,-295.410,0
0.306,-1000.000,-1000.000,-595.215,-896.973,0
0.309,-243.164,-791.992,-588.867,858.398,0
0.313,-904.785,791.504,-529.297,-760.742,0
0.317,779.785,738.770,-508.301,-916.504,0
0.321,-858.398,-978.516,-590.820,835.938,0
0.325,-896.973,-990.723,-627.441,989.258,0
0.329,831.055,669.434,-527.344,-713.867,0
0.333,988.281,997.559,-457.520,-1000.000,0
0.337,-708.008,-657.715,-584.473,614.258,0
0.341,-1000.000,-1000.000,-634.766,-821.289,0
0.345,647.461,400.391,-531.250,-296.387,0
0.349,-897.949,-981.445,-425.781,-1000.000,0
0.352,-489.746,-520.508,-545.410,284.668,0
0.356,-1000.000,-1000.000,-629.883,-780.273,0
0.360,297.363,-433.594,-569.824,562.500,0
0.364,-788.574,985.840,-489.746,-991.211,0
0.368,308.594,120.117,-562.988,-519.531,0
0.372,-1000.000,-1000.000,-637.695,-963.379,0
0.376,-482.422,-878.418,-571.289,927.246,0
0.380,-964.844,712.891,-422.363,-696.777,0
0.384,868.164,853.027,-515.625,-990.234,0
0.388,-774.902,-898.926,-623.047,736.328,0
0.392,-994.141,-1000.000,-582.031,-936.035,0
0.395,738.770,671.387,-522.949,-632.324,0
0.399,-992.188,987.305,-497.070,-1000.000,0
0.403,-715.332,-640.625,-588.379,596.191,0
0.407,-1000.000,-1000.000,-597.168,-798.828,0
0.411,632.812,239.258,-491.211,-77.637,0
0.415,-864.258,-943.359,-507.324,-1000.000,0
0.419,-377.930,-399.414,-595.703,153.809,0
0.423,-1000.000,-1000.000,-592.773,-790.039,0
0.427,183.105,-602.051,-581.055,656.738,0
0.431,-795.410,928.711,-533.691,-930.176,0
0.434,551.270,357.422,-542.480,-727.051,0
0.438,-1000.000,-1000.000,-542.480,960.938,0
0.442,-704.590,-937.988,-573.730,953.613,0
0.446,952.148,666.016,-515.625,-696.777,0
0.450,955.078,928.711,-498.047,-1000.000,0
0.454,-692.871,-805.664,-518.555,642.578,0
0.458,-1000.000,-1000.000,-573.242,-880.371,0
0.462,679.199,604.004,-573.242,-527.832,0
0.466,-987.305,981.934,-492.676,-1000.000,0
0.470,-701.172,-621.582,-591.309,508.789,0
0.474,-1000.000,-1000.000,-640.137,-783.203,0
0.477,531.250,5.859,-572.754,142.578,0
0.481,-832.520,-943.848,-510.742,-1000.000,0
0.485,-257.812,-266.113,-564.941,-70.312,0
0.489,-1000.000,-1000.000,-626.465,-840.332,0
0.493,-22.949,-711.426,-596.191,776.855,0
0.497,-847.168,862.793,-498.535,-832.520,0
0.501,682.129,587.402,-542.480,-829.590,0
0.505,-930.176,-1000.000,-629.395,903.809,0
0.509,-806.641,-967.285,-596.191,971.680,0
0.513,896.973,662.598,-484.375,-706.055,0
0.517,971.191,986.816,-497.070,-1000.000,0
0.520,-700.684,-702.148,-615.234,627.930,0
0.524,-1000.000,-1000.000,-622.559,-847.656,0
0.528,663.574,510.742,-458.496,-411.133,0
0.532,-938.477,982.910,-365.234,-1000.000,0
0.536,-598.145,-596.191,-581.055,384.766,0
0.540,-1000.000,-1000.000,-624.023,-774.902,0
0.544,412.598,-242.188,-489.746,356.445,0
0.548,-798.828,-977.051,-487.793,-1000.000,0
0.552,44.434,-100.098,-597.168,-293.945,0
0.556,-1000.000,-1000.000,-608.887,-899.902,0
0.559,-254.883,-795.410,-539.551,869.629,0
0.563,-898.926,789.551,-492.676,-741.211,0
0.567,777.344,766.602,-547.363,-934.082,0
0.571,-854.980,-962.402,-601.074,819.824,0
0.575,-910.156,-996.094,-573.730,993.164,0
0.579,816.895,671.875,-536.133,-714.355,0
0.583,991.211,995.605,-524.902,-1000.000,0
0.587,-708.984,-655.273,-571.289,614.258,0
0.591,-1000.000,-1000.000,-596.191,-821.777,0
0.595,647.461,382.324,-571.777,-294.922,0
0.599,-897.949,-974.121,-518.066,-1000.000,0
0.602,-490.234,-501.953,-560.059,275.391,0
0.606,-1000.000,-1000.000,-607.422,-780.273,0
0.610,295.410,-471.191,-590.332,564.941,0
0.614,-788.086,973.633,-517.578,-990.234,0
0.618,334.961,140.137,-515.137,-520.020,0
0.622,-1000.000,-1000.000,-576.660,-962.891,0
0.626,-486.816,-889.160,-600.586,924.805,0
0.630,-962.891,700.684,-507.324,-690.430,0
0.634,865.234,860.352,-461.426,-1000.000,0
0.638,-768.555,-892.090,-575.684,706.543,0
0.642,-1000.000,-1000.000,-628.418,-931.152,0
0.645,709.473,663.086,-525.879,-632.812,0
0.649,-987.305,986.816,-439.453,-1000.000,0
0.653,-716.309,-639.160,-583.008,596.680,0
0.657,-1000.000,-1000.000,-641.113,-798.340,0
0.661,629.883,219.727,-530.273,-77.148,0
0.665,-857.910,-939.453,-374.512,-1000.000,0
0.669,-359.863,-382.812,-522.949,155.273,0
0.673,-1000.000,-1000.000,-655.273,-788.086,0
0.677,191.406,-618.652,-588.867,683.105,0
0.681,-793.945,855.469,-516.602,-897.461,0
0.684,375.000,155.762,-546.387,-539.551,0
0.688,-1000.000,-1000.000,-618.164,-961.426,0
0.692,-691.895,-913.574,-585.449,919.922,0
0.696,924.805,647.949,-485.352,-681.152,0
0.700,963.379,941.895,-546.387,-1000.000,0
0.704,-694.336,-795.898,-632.324,643.066,0
0.708,-1000.000,-1000.000,-562.012,-881.836,0
0.712,684.570,599.121,-531.250,-524.414,0
0.716,-993.652,979.492,-526.855,-1000.000,0
0.720,-699.707,-617.676,-576.172,492.676,0
0.724,-976.562,-1000.000,-554.199,-781.250,0
0.727,562.500,-37.109,-527.344,142.578,0
0.731,-844.727,-952.637,-521.484,-1000.000,0
0.735,-223.145,-252.930,-578.613,-68.359,0
0.739,-1000.000,-1000.000,-541.992,-846.680,0
0.743,-26.367,-726.074,-549.805,802.734,0
0.747,-845.703,851.562,-541.992,-804.199,0
0.751,679.199,613.770,-522.461,-837.891,0
0.755,-918.457,-1000.000,-591.797,902.832,0
0.759,-862.793,-971.191,-618.164,972.168,0
0.763,845.215,664.062,-540.527,-706.055,0
0.766,983.887,986.816,-503.906,-1000.000,0
0.770,-704.590,-694.824,-590.332,627.930,0
0.774,-1000.000,-1000.000,-595.703,-847.656,0
0.778,663.086,486.816,-537.109,-411.133,0
0.782,-938.477,990.234,-489.746,-1000.000,0
0.786,-599.121,-583.984,-566.895,380.859,0
0.790,-1000.000,-1000.000,-634.277,-778.320,0
0.794,405.762,-260.742,-582.520,460.938,0
0.798,-791.992,-976.562,-452.148,-1000.000,0
0.802,130.859,-68.848,-541.016,-327.148,0
0.806,-1000.000,-1000.000,-647.461,-912.598,0
0.809,-267.090,-812.012,-588.379,803.711,0
0.813,-892.090,777.344,-423.828,-718.750,0
0.817,772.949,772.949,-482.422,-973.633,0
0.821,-845.215,-960.449,-626.465,760.254,0
0.825,-950.684,-996.582,-587.402,-992.188,0
0.829,772.949,672.363,-458.984,-717.773,0
0.833,-999.512,995.117,-487.305,-1000.000,0
0.837,-711.426,-654.297,-627.441,609.375,0
0.841,-1000.000,-1000.000,-608.398,-814.941,0
0.845,645.996,372.070,-441.406,-246.094,0
0.849,-894.531,-967.773,-432.617,-1000.000,0
0.852,-482.422,-487.305,-616.211,271.484,0
0.856,-1000.000,-1000.000,-618.164,-792.480,0
0.860,295.898,-499.512,-499.023,646.973,0
0.864,-792.480,964.355,-493.652,-927.246,0
0.868,335.449,156.250,-581.543,-587.402,0
0.872,-1000.000,-1000.000,-583.496,-978.027,0
0.876,-588.379,-898.926,-563.965,929.199,0
0.880,992.676,687.500,-541.016,-683.594,0
0.884,881.348,870.605,-541.992,-1000.000,0
0.888,-770.508,-882.324,-589.355,659.180,0
0.891,-1000.000,-1000.000,-609.375,-923.340,0
0.895,682.617,658.203,-556.641,-634.766,0
0.899,-982.422,986.328,-511.719,-1000.000,0
0.903,-718.750,-636.719,-561.035,586.914,0
0.907,-1000.000,-1000.000,-600.586,-789.062,0
0.911,620.605,193.848,-572.266,37.109,0
0.915,-838.867,-935.547,-484.375,-1000.000,0
0.919,-304.199,-361.328,-482.422,140.625,0
0.923,-1000.000,-1000.000,-583.984,-798.340,0
0.927,177.246,-637.207,-623.047,729.980,0
0.931,-793.457,914.062,-506.836,-851.074,0
0.934,575.195,407.227,-458.984,-793.945,0
0.938,-979.980,-1000.000,-588.379,928.223,0
0.942,-791.016,-945.312,-617.188,963.867,0
0.946,891.602,663.086,-497.559,-701.172,0
0.950,972.168,938.965,-516.602,-1000.000,0
0.954,-699.707,-786.133,-619.141,639.160,0
0.958,-1000.000,-1000.000,-624.023,-872.559,0
0.962,674.805,579.102,-516.113,-504.395,0
0.966,-973.633,982.422,-485.840,-1000.000,0
0.970,-682.129,-619.141,-610.840,482.422,0
0.974,-1000.000,-1000.000,-619.141,-778.320,0
0.977,514.160,-32.715,-539.551,299.805,0
0.981,-811.523,-942.871,-501.953,-1000.000,0
0.985,-79.102,-234.375,-597.168,-145.508,0
0.989,-1000.000,-1000.000,-620.117,-854.980,0
0.993,-123.047,-736.816,-503.906,823.730,0
0.997,-857.910,843.750,-461.426,-773.438,0
1.001,686.523,625.488,-548.340,-903.320,0
1.005,-919.922,-1000.000,-608.887,847.168,0
1.009,-881.836,-972.168,-518.066,986.328,0
1.013,826.172,664.062,-474.121,-710.938,0
1.016,988.770,989.746,-546.387,-1000.000,0
1.020,-707.031,-690.918,-606.445,623.047,0
1.024,-1000.000,-1000.000,-556.641,-838.867,0
1.028,654.297,482.910,-525.879,-384.277,0
1.032,-915.527,997.070,-517.578,-1000.000,0
1.036,-555.664,-571.777,-567.383,376.465,0
1.040,-1000.000,-1000.000,-612.305,-781.738,0
1.044,402.832,-277.832,-588.379,533.691,0
1.048,-793.945,-976.562,-518.555,-992.676,0
1.052,168.457,-47.852,-566.895,-420.898,0
1.056,-1000.000,-1000.000,-611.328,-931.641,0
1.059,-391.113,-826.172,-583.008,913.086,0
1.063,-931.641,762.695,-517.090,-688.965,0
1.067,790.039,777.344,-509.766,-995.117,0
1.071,-850.098,-959.473,-556.152,760.742,0
1.075,-964.844,-997.559,-620.117,-993.652,0
1.079,754.395,672.852,-550.293,-718.750,0
1.083,-995.605,994.141,-478.516,-1000.000,0
1.087,-713.867,-652.832,-588.379,604.980,0
1.091,-1000.000,-1000.000,-629.883,-809.082,0
1.095,635.254,355.957,-538.086,-198.730,0
1.099,-868.164,-958.008,-424.316,-1000.000,0
1.102,-417.969,-468.262,-544.434,257.812,0
1.106,-1000.000,-1000.000,-633.301,-794.434,0
1.110,281.250,-510.742,-572.266,651.855,0
1.114,-790.039,965.332,-487.305,-925.781,0
1.118,379.883,200.195,-560.547,-701.172,0
1.122,-1000.000,-1000.000,-636.230,972.168,0
1.126,-640.625,-906.250,-589.355,948.730,0
1.130,976.074,687.012,-411.133,-692.871,0
1.134,887.695,875.488,-466.797,-1000.000,0
1.138,-772.461,-872.559,-640.137,659.180,0
1.141,-1000.000,-1000.000,-599.609,-923.340,0
1.145,675.293,645.020,-515.137,-635.254,0
1.149,-981.445,985.840,-505.859,-1000.000,0
1.153,-719.238,-633.301,-602.539,586.426,0
1.157,-1000.000,-1000.000,-598.633,-789.551,0
1.161,618.164,160.156,-504.883,47.852,0
1.165,-836.426,-935.547,-507.324,-1000.000,0
1.169,-268.555,-347.168,-593.750,122.070,0
1.173,-1000.000,-1000.000,-573.730,-798.340,0
1.177,80.078,-648.438,-568.848,718.262,0
1.181,-812.012,906.250,-547.852,-865.723,0
1.184,586.426,422.852,-544.434,-786.133,0
1.188,-986.328,-1000.000,-528.809,930.176,0
1.192,-790.527,-946.777,-574.219,963.379,0
1.196,891.113,663.086,-529.785,-700.195,0
1.200,972.656,943.848,-505.859,-1000.000,0
1.204,-699.707,-774.414,-537.598,643.066,0
1.208,-1000.000,-1000.000,-558.105,-881.836,0
1.212,672.363,562.500,-564.453,-525.391,0
1.216,-966.797,981.445,-508.789,-1000.000,0
1.220,-668.457,-615.234,-577.637,485.840,0
1.223,-1000.000,-1000.000,-643.066,-777.832,0
1.227,500.977,-75.684,-596.191,247.559,0
1.231,-810.547,-947.754,-506.836,-1000.000,0
1.235,-44.434,-216.309,-571.777,-87.402,0
1.239,-1000.000,-1000.000,-616.211,-844.727,0
1.243,-194.824,-743.652,-583.496,817.871,0
1.247,-874.512,836.426,-484.375,-770.508,0
1.251,696.289,655.762,-501.953,-902.344,0
1.255,-925.293,-1000.000,-613.281,848.633,0
1.259,-880.371,-977.051,-620.117,985.840,0
1.263,826.172,665.527,-514.160,-710.449,0
1.266,988.770,991.699,-487.305,-1000.000,0
1.270,-707.520,-681.152,-612.793,625.977,0
1.274,-1000.000,-1000.000,-636.230,-843.750,0
1.278,650.391,462.402,-484.863,-398.926,0
1.282,-905.273,-999.512,-462.891,-1000.000,0
1.286,-522.949,-562.988,-604.004,377.441,0
1.290,-1000.000,-1000.000,-598.633,-779.785,0
1.294,365.234,-313.965,-485.352,520.996,0
1.298,-795.898,-985.840,-474.609,-995.117,0
1.302,174.805,-24.414,-588.867,-367.188,0
1.306,-1000.000,-1000.000,-595.703,-914.062,0
1.309,-466.797,-837.891,-587.891,905.273,0
1.313,-958.008,746.094,-524.902,-685.059,0
1.317,801.758,801.758,-529.785,-996.094,0
1.321,-855.957,-940.918,-583.496,760.742,0
1.325,-962.891,-1000.000,-579.102,-993.164,0
1.329,754.883,674.805,-529.785,-718.750,0
1.333,-995.605,992.188,-518.066,-1000.000,0
1.337,-714.355,-649.902,-572.754,604.980,0
1.341,-1000.000,-1000.000,-596.680,-808.594,0
1.345,635.254,336.426,-564.453,-202.148,0
1.348,-869.629,-955.566,-523.438,-1000.000,0
1.352,-396.484,-461.426,-549.805,266.113,0
1.356,-1000.000,-1000.000,-540.527,-793.457,0
1.360,207.520,-536.133,-590.332,648.926,0
1.364,-792.969,953.613,-528.320,-926.270,0
1.368,386.230,219.727,-520.020,-675.781,0
1.372,-1000.000,-1000.000,-579.102,983.398,0
1.376,-682.129,-911.621,-591.797,944.336,0
1.380,957.520,677.734,-512.207,-690.430,0
1.384,895.020,895.020,-430.176,-1000.000,0
1.388,-775.879,-852.539,-550.781,659.180,0
1.391,-1000.000,-1000.000,-640.625,-923.340,0
1.395,676.270,642.578,-545.898,-635.254,0
1.399,-984.863,984.375,-430.664,-1000.000,0
1.403,-710.938,-631.348,-571.289,586.426,0
1.407,-1000.000,-1000.000,-655.273,-790.039,0
1.411,578.613,134.766,-563.965,48.828,0
1.415,-836.914,-933.594,-515.625,-1000.000,0
1.419,-260.742,-333.008,-597.168,118.164,0
1.423,-1000.000,-1000.000,-635.254,-802.734,0
1.427,-0.488,-666.016,-585.938,731.445,0
1.431,-828.125,894.043,-502.441,-848.145,0
1.434,596.191,469.727,-548.340,-822.754,0
1.438,-992.188,-1000.000,-611.816,905.762,0
1.442,-789.062,-952.148,-571.777,970.215,0
1.446,890.625,661.133,-504.395,-703.613,0
1.450,972.656,963.379,-526.855,-1000.000,0
1.454,-705.566,-754.395,-613.770,644.531,0
1.458,-1000.000,-1000.000,-547.852,-879.395,0
1.462,666.992,558.105,-497.070,-503.906,0
1.466,944.824,880.371,-535.156,-962.402,0
1.470,-664.551,-646.484,-584.961,513.672,0
1.473,-1000.000,-1000.000,-539.551,-792.969,0
1.477,431.641,-127.930,-515.625,347.168,0
1.481,-805.176,-956.543,-520.020,-1000.000,0
1.485,-39.062,-205.078,-568.359,-150.391,0
1.489,-1000.000,-1000.000,-528.809,-852.051,0
1.493,-247.070,-758.789,-566.895,822.266,0
1.497,-889.160,820.312,-555.176,-770.996,0
1.501,703.125,679.199,-517.090,-915.527,0
1.505,-929.199,-1000.000,-591.797,835.449,0
1.509,-879.395,-980.469,-624.512,989.258,0
1.513,826.660,666.016,-552.246,-712.402,0
1.516,988.770,995.117,-494.629,-1000.000,0
1.520,-708.496,-673.828,-580.078,619.141,0
1.524,-1000.000,-1000.000,-610.352,-830.078,0
1.528,647.949,449.707,-536.133,-358.887,0
1.532,-897.949,-997.070,-482.910,-1000.000,0
1.536,-489.258,-553.223,-520.996,374.023,0
1.540,-1000.000,-1000.000,-612.793,-781.738,0
1.544,305.664,-362.305,-600.098,553.711,0
1.548,-792.969,997.070,-485.840,-984.863,0
1.552,177.246,-5.859,-555.664,-437.988,0
1.556,-1000.000,-1000.000,-620.605,-935.059,0
1.559,-466.797,-846.680,-586.914,914.551,0
1.563,-958.008,733.887,-438.965,-689.941,0
1.567,801.758,815.430,-500.488,-994.629,0
1.571,-855.957,-931.152,-623.535,760.742,0
1.575,-962.891,-1000.000,-585.938,-993.652,0
1.579,754.395,676.270,-453.613,-719.727,0
1.583,-995.605,991.211,-475.098,-1000.000,0
1.587,-714.844,-646.973,-630.371,598.145,0
1.591,-1000.000,-1000.000,-613.770,-799.316,0
1.595,632.812,314.453,-554.199,-136.719,0
1.598,-864.258,-950.195,-532.227,-1000.000,0
1.602,-377.441,-447.754,-601.074,258.301,0
1.606,-1000.000,-1000.000,-606.445,-790.527,0
1.610,190.430,-553.223,-583.008,650.391,0
1.614,-792.480,946.777,-519.531,-924.805,0
1.618,387.207,258.789,-551.758,-714.844,0
1.622,-1000.000,-1000.000,-567.383,966.309,0
1.626,-680.176,-918.457,-495.117,951.172,0
1.630,952.148,675.293,-508.301,-694.824,0
1.634,914.062,903.320,-539.062,-1000.000,0
1.638,-751.465,-840.820,-566.406,648.926,0
1.641,-1000.000,-1000.000,-602.539,-895.996,0
1.645,677.246,632.812,-563.965,-583.008,0
1.649,-986.816,983.398,-519.043,-1000.000,0
1.653,-705.078,-627.930,-547.852,580.566,0
1.657,-1000.000,-1000.000,-593.262,-789.062,0
1.661,550.781,95.215,-570.312,136.230,0
1.665,-834.961,-940.918,-492.188,-1000.000,0
1.669,-257.812,-321.777,-482.422,-7.812,0
1.673,-1000.000,-1000.000,-519.043,-820.801,0
1.677,-25.391,-676.758,-589.355,744.141,0
1.680,-833.496,884.766,-520.508,-854.980,0
1.684,599.609,481.445,-516.113,-825.195,0
1.688,-993.652,-1000.000,-612.305,902.344,0
1.692,-788.574,-952.637,-622.559,971.680,0
1.696,890.625,659.668,-517.578,-705.566,0
1.700,972.168,971.191,-513.184,-1000.000,0
1.704,-701.172,-737.793,-617.188,629.883,0
1.708,-1000.000,-1000.000,-625.000,-852.051,0
1.712,662.109,558.105,-531.738,-431.641,0
1.716,-935.059,980.469,-482.910,-1000.000,0
1.720,-609.375,-622.070,-601.074,417.480,0
1.723,-1000.000,-1000.000,-631.348,-779.785,0
1.727,463.379,-120.605,-557.617,348.633,0
1.731,-905.762,852.539,-511.719,-968.750,0
1.735,-81.055,-262.207,-557.617,-248.047,0
1.739,-1000.000,-1000.000,-601.074,-910.156,0
1.743,-254.883,-790.039,-522.949,850.098,0
1.747,-886.230,811.035,-385.254,-783.691,0
1.751,703.125,692.871,-513.672,-912.598,0
1.755,-929.199,-1000.000,-627.441,835.449,0
1.759,-879.395,-982.422,-520.996,988.770,0
1.763,826.172,666.016,-491.699,-713.867,0
1.766,988.770,997.070,-554.199,-1000.000,0
1.770,-708.008,-670.410,-604.492,614.258,0
1.774,-1000.000,-1000.000,-624.512,-820.801,0
1.778,647.461,444.336,-563.477,-296.387,0
1.782,-896.973,-989.258,-517.578,-1000.000,0
1.786,-490.723,-541.992,-585.449,285.156,0
1.790,-1000.000,-1000.000,-613.281,-780.762,0
1.794,316.406,-370.117,-577.148,562.500,0
1.798,-793.457,999.512,-517.578,-991.211,0
1.802,176.758,32.715,-556.641,-519.531,0
1.805,-1000.000,-1000.000,-577.637,-963.379,0
1.809,-466.797,-866.699,-589.355,927.734,0
1.813,-958.496,716.797,-521.973,-697.754,0
1.817,803.223,824.707,-504.395,-987.305,0
1.821,-854.492,-925.781,-597.656,746.094,0
1.825,-963.379,-1000.000,-629.395,-948.730,0
1.829,754.883,676.758,-544.434,-649.902,0
1.833,-995.605,990.234,-459.473,-1000.000,0
1.837,-714.844,-646.973,-573.242,596.680,0
1.841,-1000.000,-1000.000,-628.906,-798.828,0
1.845,632.812,303.223,-534.668,-77.148,0
1.848,-864.258,-944.824,-418.457,-1000.000,0
1.852,-377.441,-428.711,-532.715,153.809,0
1.856,-1000.000,-1000.000,-615.234,-790.039,0
1.860,190.430,-576.660,-559.570,656.738,0
1.864,-792.480,935.547,-436.523,-930.176,0
1.868,387.695,273.926,-537.109,-727.051,0
1.872,-1000.000,-1000.000,-651.367,960.938,0
1.876,-679.688,-925.781,-581.055,953.613,0
1.880,950.195,666.992,-441.406,-696.777,0
1.884,920.410,909.668,-510.254,-1000.000,0
1.888,-742.676,-834.961,-636.230,642.090,0
1.891,-1000.000,-1000.000,-606.445,-880.371,0
1.895,677.734,629.883,-544.434,-528.320,0
1.899,-986.816,983.398,-505.859,-1000.000,0
1.903,-704.590,-627.441,-588.867,511.230,0
1.907,-1000.000,-1000.000,-601.074,-783.203,0
1.911,549.316,80.078,-461.426,142.578,0
1.915,-834.473,-939.453,-476.074,-1000.000,0
1.919,-257.812,-308.105,-611.816,-71.777,0
1.923,-1000.000,-1000.000,-595.215,-833.984,0
1.927,-25.391,-693.848,-585.449,751.953,0
1.930,-833.496,872.559,-536.133,-859.375,0
1.934,599.121,509.766,-541.504,-824.219,0
1.938,-993.652,-1000.000,-533.691,902.344,0
1.942,-788.574,-956.055,-576.172,971.191,0
1.946,890.625,658.691,-525.879,-706.055,0
1.950,972.656,980.469,-484.863,-1000.000,0
1.954,-701.172,-720.703,-541.992,627.930,0
1.958,-1000.000,-1000.000,-596.680,-847.656,0
1.962,663.086,540.039,-576.172,-411.133,0
1.966,-938.477,979.492,-499.512,-1000.000,0
1.970,-597.656,-608.887,-514.648,385.254,0
1.973,-1000.000,-1000.000,-590.820,-774.902,0
1.977,419.922,-179.688,-590.332,356.445,0
1.981,-805.664,-970.703,-494.629,-1000.000,0
1.985,-38.574,-167.969,-579.590,-294.922,0
1.989,-1000.000,-1000.000,-616.699,-897.461,0
1.993,-245.605,-780.762,-567.383,860.840,0
1.997,-894.043,797.852,-492.676,-757.812,0
2.001,726.562,721.680,-524.902,-916.992,0
2.005,-907.715,-987.305,-623.047,835.938,0
2.009,-884.766,-987.305,-612.305,989.746,0
2.013,827.637,667.480,-503.906,-713.867,0
2.016,988.281,999.512,-501.953,-1000.000,0
2.020,-708.496,-660.645,-620.117,613.770,0
2.024,-1000.000,-1000.000,-629.395,-820.801,0
2.028,647.461,420.898,-495.117,-297.363,0
2.032,-897.949,-986.816,-471.680,-1000.000,0
2.036,-489.258,-532.715,-590.332,291.504,0
2.040,-1000.000,-1000.000,-603.027,-780.762,0
2.044,306.152,-408.691,-482.422,562.012,0
2.048,-793.457,987.793,-374.512,-990.723,0
2.052,177.734,61.523,-552.734,-519.531,0
2.055,-1000.000,-1000.000,-606.934,-963.379,0
2.059,-475.586,-878.906,-575.684,927.734,0
2.063,-965.820,704.102,-537.598,-697.754,0
2.067,817.383,835.449,-541.504,-987.305,0
2.071,-828.125,-917.969,-600.586,746.582,0
2.075,-1000.000,-1000.000,-602.051,-949.707,0
2.079,708.984,673.828,-541.992,-651.855,0
2.083,-987.793,989.258,-514.648,-1000.000,0
2.087,-715.820,-645.020,-580.078,596.191,0
2.091,-1000.000,-1000.000,-600.098,-799.316,0
2.095,632.812,276.367,-568.848,-77.148,0
2.098,-864.258,-938.965,-525.879,-1000.000,0
2.102,-377.441,-405.762,-548.828,153.320,0
2.106,-1000.000,-1000.000,-576.660,-790.039,0
2.110,190.430,-593.262,-601.562,656.738,0
2.114,-792.969,929.688,-538.574,-930.176,0
2.118,387.207,308.594,-521.484,-727.051,0
2.122,-1000.000,-1000.000,-572.266,960.938,0
2.126,-694.336,-934.082,-591.797,953.613,0
2.130,929.688,662.109,-534.180,-696.777,0
2.134,949.707,917.480,-446.777,-1000.000,0
2.137,-710.449,-820.801,-498.047,642.090,0
2.141,-1000.000,-1000.000,-626.465,-878.418,0
2.145,678.711,609.375,-545.898,-534.668,0
2.149,-987.793,982.910,-463.867,-1000.000,0
2.153,-701.172,-624.023,-599.121,541.016,0
2.157,-1000.000,-1000.000,-646.484,-787.109,0
2.161,531.250,33.691,-575.684,142.578,0
2.165,-832.520,-939.453,-512.695,-1000.000,0
2.169,-257.812,-275.391,-583.496,-71.777,0
2.173,-1000.000,-1000.000,-606.445,-833.984,0
2.177,-23.926,-701.660,-568.359,751.953,0
2.180,-840.820,869.629,-507.812,-859.375,0
2.184,642.578,560.059,-534.180,-824.219,0
2.188,-957.520,-1000.000,-598.145,902.344,0
2.192,-811.035,-964.355,-571.289,971.191,0
2.196,881.836,662.598,-501.953,-706.055,0
2.200,974.609,979.492,-522.461,-1000.000,0
2.204,-701.660,-713.867,-590.820,626.953,0
2.208,-1000.000,-1000.000,-568.848,-845.703,0
2.212,668.457,517.090,-542.969,-416.016,0
2.216,-944.824,979.004,-524.414,-1000.000,0
2.220,-595.215,-606.934,-566.406,411.133,0
2.223,-1000.000,-1000.000,-539.062,-776.855,0
2.227,453.613,-208.496,-536.621,355.957,0
2.231,-821.777,-970.703,-534.180,-1000.000,0
2.235,-30.273,-123.047,-567.871,-296.875,0
2.239,-1000.000,-1000.000,-519.531,-892.090,0
2.243,-244.629,-792.969,-559.082,842.773,0
2.247,-898.926,791.504,-553.223,-781.738,0
2.251,749.023,735.840,-536.133,-912.598,0
2.255,-875.977,-980.469,-614.258,835.449,0
2.259,-925.293,-989.746,-621.582,989.258,0
2.262,791.504,669.434,-525.879,-713.867,0
2.266,996.582,997.070,-491.699,-1000.000,0
2.270,-709.961,-656.250,-589.844,614.258,0
2.274,-1000.000,-1000.000,-613.281,-820.801,0
2.278,647.461,393.066,-552.246,-296.875,0
2.282,-897.949,-981.445,-494.141,-1000.000,0
2.286,-488.770,-518.555,-554.199,287.598,0
2.290,-1000.000,-1000.000,-632.324,-780.762,0
2.294,306.152,-443.359,-597.168,562.012,0
2.298,-793.457,979.980,-489.746,-991.211,0
2.302,177.734,106.445,-555.664,-519.531,0
2.305,-1000.000,-1000.000,-607.422,-963.379,0
2.309,-469.238,-884.277,-574.219,927.734,0
2.313,-972.656,703.613,-478.027,-698.242,0
2.317,851.562,845.703,-513.672,-985.840,0
2.321,-778.809,-905.273,-595.703,742.676,0
2.325,-1000.000,-1000.000,-595.215,-937.012,0
2.329,674.805,664.551,-443.848,-631.836,0
2.333,-981.445,986.816,-368.164,-1000.000,0
2.337,-716.797,-639.160,-584.473,596.680,0
2.341,-1000.000,-1000.000,-634.277,-798.828,0
2.345,632.812,228.516,-564.941,-77.637,0
2.348,-864.258,-943.848,-533.203,-1000.000,0
2.352,-377.930,-397.461,-586.426,153.809,0
2.356,-1000.000,-1000.000,-584.473,-790.039,0
2.360,184.082,-602.539,-575.684,656.250,0
2.364,-794.922,928.711,-530.762,-930.176,0
2.368,532.227,365.234,-548.340,-727.051,0
2.372,-1000.000,-1000.000,-563.477,960.449,0
2.376,-702.148,-938.965,-533.691,953.613,0
2.380,950.195,666.992,-521.484,-696.777,0
2.384,955.566,927.246,-541.504,-1000.000,0
2.387,-692.871,-805.176,-589.355,642.090,0
2.391,-1000.000,-1000.000,-607.422,-879.395,0
2.395,679.199,596.680,-562.012,-530.762,0
2.399,-987.305,982.422,-517.090,-1000.000,0
2.403,-701.172,-620.605,-537.598,521.973,0
2.407,-1000.000,-1000.000,-584.961,-784.668,0
2.411,531.250,-2.441,-584.473,142.578,0
2.415,-832.520,-945.801,-490.234,-1000.000,0
2.419,-257.812,-263.672,-511.719,-70.801,0
2.423,-1000.000,-1000.000,-582.031,-837.402,0
2.427,-23.438,-711.426,-600.586,766.113,0
2.430,-845.703,862.793,-520.508,-844.727,0
2.434,670.410,589.844,-520.508,-827.148,0
2.438,-928.711,-1000.000,-580.078,903.320,0
2.442,-846.680,-967.773,-608.887,971.680,0
2.446,857.422,663.086,-526.367,-706.055,0
2.450,980.957,983.887,-399.902,-1000.000,0
2.454,-703.613,-701.660,-500.000,627.441,0
2.458,-1000.000,-1000.000,-623.047,-847.168,0
2.462,663.086,498.535,-547.363,-412.598,0
2.466,-938.477,984.375,-500.977,-1000.000,0
2.470,-597.656,-595.703,-600.098,393.555,0
2.473,-1000.000,-1000.000,-621.094,-775.391,0
2.477,418.457,-239.746,-554.199,356.445,0
2.481,-805.176,-975.586,-477.539,-1000.000,0
2.485,-19.043,-98.145,-583.008,-293.457,0
2.489,-1000.000,-1000.000,-609.375,-901.367,0
2.493,-265.137,-803.223,-539.551,876.465,0
2.497,-910.156,782.715,-490.234,-737.793,0
2.501,778.320,761.719,-534.668,-919.922,0
2.505,-845.215,-967.285,-608.887,836.426,0
2.509,-956.055,-994.629,-525.391,990.234,0
2.512,766.602,671.387,-428.223,-713.867,0
2.516,-998.047,996.094,-532.227,-1000.000,0
2.520,-711.426,-655.273,-613.281,614.746,0
2.524,-1000.000,-1000.000,-555.176,-821.777,0
2.528,647.949,382.812,-538.574,-294.922,0
2.532,-899.414,-976.074,-537.109,-1000.000,0
2.536,-485.840,-501.953,-583.984,275.879,0
2.540,-1000.000,-1000.000,-596.191,-781.738,0
2.544,294.922,-479.980,-590.820,596.680,0
2.548,-803.711,961.426,-524.902,-958.984,0
2.552,86.914,21.484,-537.598,-428.711,0
2.555,-1000.000,-1000.000,-565.918,-925.781,0
2.559,-635.254,-879.395,-576.660,907.715,0
2.563,934.570,680.664,-532.715,-680.664,0
2.567,902.344,861.328,-517.578,-1000.000,0
2.571,-775.879,-895.508,-587.402,698.730,0
2.575,-1000.000,-1000.000,-626.465,-930.176,0
2.579,675.293,662.598,-551.758,-633.301,0
2.583,-981.445,986.328,-484.375,-1000.000,0
2.587,-721.680,-642.090,-587.891,601.562,0
2.591,-1000.000,-1000.000,-623.535,-805.176,0
2.594,631.348,202.637,-537.109,-75.684,0
2.598,-964.355,957.520,-448.730,-1000.000,0
2.602,-411.133,-416.016,-541.016,190.430,0
2.606,-1000.000,-1000.000,-598.633,-818.359,0
2.610,167.480,-635.254,-587.891,721.680,0
2.614,-795.410,918.945,-436.035,-877.930,0
2.618,515.625,376.465,-499.512,-753.418,0
2.622,-1000.000,-1000.000,-630.371,954.102,0
2.626,-760.254,-941.895,-582.520,956.055,0
2.630,902.344,663.086,-512.207,-698.242,0
2.634,969.238,932.617,-535.645,-1000.000,0
2.637,-702.637,-804.199,-625.000,647.949,0
2.641,-1000.000,-1000.000,-595.215,-888.184,0
2.645,677.246,590.332,-439.453,-522.949,0
2.649,913.086,881.836,-464.844,-967.773,0
2.653,-734.863,-653.809,-624.512,521.484,0
2.657,-1000.000,-1000.000,-597.168,-789.551,0
2.661,524.414,-28.809,-563.965,219.238,0
2.665,-834.473,-942.871,-544.922,-1000.000,0
2.669,-251.465,-250.000,-593.750,20.996,0
2.673,-1000.000,-1000.000,-557.617,-811.523,0
2.677,-102.539,-725.586,-475.098,803.223,0
2.680,-865.234,851.562,-513.184,-770.996,0
2.684,665.039,589.844,-578.613,-865.234,0
2.688,-938.965,-1000.000,-540.527,885.254,0
2.692,-876.465,-967.285,-590.820,976.562,0
2.696,824.707,662.109,-555.176,-707.520,0
2.700,988.770,987.793,-500.488,-1000.000,0
2.704,-706.055,-697.754,-542.480,627.930,0
2.708,-1000.000,-1000.000,-601.074,-847.656,0
2.712,663.086,497.070,-588.379,-411.133,0
2.716,-938.477,993.164,-510.254,-1000.000,0
2.719,-598.145,-580.078,-523.438,380.371,0
2.723,-1000.000,-1000.000,-599.609,-776.855,0
2.727,415.527,-250.488,-597.168,464.844,0
2.731,-810.059,-975.586,-490.234,-1000.000,0
2.735,39.551,-83.008,-481.934,-309.570,0
2.739,-1000.000,-1000.000,-574.707,-901.855,0
2.743,-434.570,-820.312,-600.098,899.902,0
2.747,-963.379,766.113,-484.375,-686.035,0
2.751,802.246,770.020,-510.742,-977.051,0
2.755,-854.980,-964.844,-623.535,782.715,0
2.759,-963.379,-995.605,-626.953,-998.047,0
2.762,754.395,671.875,-516.602,-716.797,0
2.766,-995.605,995.117,-511.719,-1000.000,0
2.770,-711.914,-654.785,-628.906,611.328,0
2.774,-1000.000,-1000.000,-632.324,-817.383,0
2.778,647.461,371.582,-521.484,-265.137,0
2.782,-896.973,-964.355,-479.492,-1000.000,0
2.786,-484.375,-482.422,-599.121,273.438,0
2.790,-1000.000,-1000.000,-593.262,-791.992,0
2.794,287.598,-485.840,-500.488,635.254,0
2.798,-797.363,969.238,-489.746,-936.523,0
2.802,287.109,151.855,-590.332,-582.031,0
2.805,-1000.000,-1000.000,-591.797,-977.051,0
2.809,-653.809,-900.879,-578.125,928.711,0
2.813,956.543,687.012,-519.531,-683.594,0
2.817,895.020,865.723,-539.062,-1000.000,0
2.821,-774.902,-886.719,-592.773,659.180,0
2.825,-1000.000,-1000.000,-514.648,-923.340,0
2.829,675.293,653.320,-516.602,-634.766,0
2.833,-981.445,985.352,-542.480,-1000.000,0
2.837,-716.797,-634.766,-577.148,588.867,0
2.841,-1000.000,-1000.000,-520.020,-791.016,0
2.844,634.766,181.152,-518.066,12.207,0
2.848,-874.023,-941.895,-527.832,-1000.000,0
2.852,-363.281,-369.629,-566.895,144.531,0
2.856,-1000.000,-1000.000,-597.168,-800.781,0
2.860,37.598,-642.090,-609.863,729.980,0
2.864,-827.148,909.180,-535.156,-850.098,0
2.868,585.938,405.762,-522.461,-801.270,0
2.872,-998.047,-1000.000,-581.543,928.223,0
2.876,-782.227,-938.477,-598.145,959.473,0
2.880,888.672,661.621,-536.621,-699.219,0
2.884,873.047,839.844,-454.590,-937.012,0
2.887,-733.398,-819.336,-566.406,676.758,0
2.891,-1000.000,-1000.000,-641.602,-897.949,0
2.895,671.387,569.336,-556.641,-516.602,0
2.899,-984.375,984.863,-454.102,-1000.000,0
2.903,-702.637,-618.652,-567.871,492.676,0
2.907,-1000.000,-1000.000,-610.840,-781.250,0
2.911,519.043,-39.551,-548.828,142.578,0
2.915,-823.242,-943.359,-517.578,-1000.000,0
2.919,-106.934,-231.934,-594.238,-67.871,0
2.923,-1000.000,-1000.000,-604.492,-849.121,0
2.927,-216.309,-738.281,-575.195,812.500,0
2.930,-887.207,842.285,-508.301,-792.969,0
2.934,701.172,625.977,-542.480,-841.309,0
2.938,-927.246,-1000.000,-599.121,902.344,0
2.942,-879.883,-972.656,-563.477,972.656,0
2.946,826.660,664.062,-519.531,-706.055,0
2.950,988.770,988.770,-525.391,-1000.000,0
2.954,-706.055,-691.406,-593.750,627.930,0
2.958,-1000.000,-1000.000,-585.449,-847.656,0
2.962,662.109,480.957,-525.391,-411.621,0
2.966,-936.523,996.582,-496.094,-1000.000,0
2.969,-583.008,-570.801,-574.219,379.883,0
2.973,-1000.000,-1000.000,-506.836,-776.855,0
2.977,379.395,-285.645,-441.895,465.332,0
2.981,-806.641,-983.398,-521.484,-1000.000,0
2.985,70.801,-64.453,-595.215,-309.570,0
2.989,-1000.000,-1000.000,-520.508,-901.855,0
2.993,-452.148,-828.125,-567.383,900.879,0
2.997,-965.820,757.324,-563.477,-689.941,0
3.001,803.711,778.320,-536.621,-962.891,0
3.005,-855.957,-959.961,-610.352,797.852,0
3.009,-963.379,-997.559,-623.535,999.023,0
3.012,759.766,672.852,-546.387,-720.703,0
3.016,998.047,994.141,-512.207,-1000.000,0
3.020,-711.426,-652.832,-593.262,612.305,0
3.024,-933.105,-1000.000,-608.398,-921.387,0
3.028,675.781,357.910,-564.941,-328.613,0
3.032,-900.879,-958.496,-503.418,-1000.000,0
3.036,-428.223,-469.238,-497.559,268.555,0
3.040,-1000.000,-1000.000,-582.520,-785.645,0
3.044,226.074,-510.742,-600.586,612.305,0
3.048,-795.410,963.867,-502.930,-953.613,0
3.051,359.863,187.988,-559.570,-532.227,0
3.055,-1000.000,-1000.000,-606.934,-959.473,0
3.059,-678.223,-910.645,-587.891,922.852,0
3.063,955.566,680.664,-463.379,-685.547,0
3.067,895.508,869.629,-501.953,-1000.000,0
3.071,-775.879,-880.859,-604.980,685.059,0
3.075,-1000.000,-1000.000,-587.891,-927.734,0
3.079,675.781,645.996,-440.918,-633.301,0
3.083,-983.398,985.352,-442.871,-1000.000,0
3.087,-713.867,-633.301,-620.117,595.703,0
3.091,-1000.000,-1000.000,-614.258,-798.340,0
3.094,607.910,162.109,-557.617,-70.312,0
3.098,-856.934,-938.477,-523.926,-1000.000,0
3.102,-315.918,-354.492,-586.426,155.762,0
3.106,-1000.000,-1000.000,-589.844,-803.711,0
3.110,11.230,-648.926,-575.195,719.238,0
3.114,-829.590,905.762,-524.414,-863.770,0
3.118,595.703,430.176,-552.734,-787.598,0
3.122,-991.211,-1000.000,-564.453,930.176,0
3.126,-789.062,-947.754,-532.227,963.379,0
3.130,890.625,663.574,-543.945,-700.684,0
3.134,972.168,944.824,-545.410,-1000.000,0
3.137,-699.219,-773.926,-582.520,643.066,0
3.141,-1000.000,-1000.000,-604.980,-881.836,0
3.145,680.176,565.918,-562.988,-524.902,0
3.149,-990.723,981.445,-533.691,-1000.000,0
3.153,-695.312,-615.723,-535.156,486.816,0
3.157,-1000.000,-1000.000,-551.270,-778.320,0
3.161,476.074,-72.266,-583.008,234.375,0
3.165,-817.383,-947.754,-499.023,-1000.000,0
3.169,-74.219,-219.238,-478.027,-81.055,0
3.173,-1000.000,-1000.000,-548.340,-844.727,0
3.176,-242.676,-749.023,-613.770,818.359,0
3.180,-891.602,832.031,-533.203,-772.949,0
3.184,704.102,641.113,-547.363,-887.695,0
3.188,-929.199,-1000.000,-614.746,862.305,0
3.192,-879.395,-974.609,-613.770,982.910,0
3.196,826.660,665.039,-522.949,-708.984,0
3.200,988.770,989.746,-501.465,-1000.000,0
3.204,-707.031,-685.059,-603.516,627.930,0
3.208,-1000.000,-1000.000,-633.301,-848.145,0
3.212,657.715,464.355,-526.855,-411.621,0
3.216,-925.293,-1000.000,-429.199,-1000.000,0
3.219,-550.293,-564.453,-574.707,378.906,0
3.223,-1000.000,-1000.000,-616.211,-779.297,0
3.227,333.984,-309.082,-557.617,496.094,0
3.231,-795.898,-984.863,-511.230,-1000.000,0
3.235,176.270,-30.762,-586.426,-352.051,0
3.239,-1000.000,-1000.000,-586.426,-912.598,0
3.243,-466.797,-838.867,-551.270,904.785,0
3.247,-958.008,746.094,-521.484,-687.500,0
3.251,801.758,793.945,-530.273,-981.934,0
3.255,-855.957,-948.242,-583.984,776.367,0
3.259,-962.891,-1000.000,-537.598,-996.582,0
3.262,754.883,674.316,-500.977,-717.285,0
3.266,-995.605,992.188,-542.969,-1000.000,0
3.270,-712.891,-649.902,-595.703,608.887,0
3.274,-1000.000,-1000.000,-538.574,-813.965,0
3.278,645.508,338.379,-533.691,-239.746,0
3.282,-893.555,-958.984,-542.969,-1000.000,0
3.286,-445.312,-467.285,-574.707,270.508,0
3.290,-1000.000,-1000.000,-514.648,-792.480,0
3.294,193.359,-539.062,-548.828,645.508,0
3.298,-795.410,950.195,-557.129,-928.223,0
3.301,387.207,209.961,-531.738,-602.051,0
3.305,-1000.000,-1000.000,-485.352,-984.375,0
3.309,-682.129,-911.133,-563.477,931.641,0
3.313,957.520,677.246,-548.828,-685.059,0
3.317,895.020,889.160,-498.535,-1000.000,0
3.321,-775.879,-858.398,-539.062,659.180,0
3.325,-1000.000,-1000.000,-617.676,-923.340,0
3.329,676.758,640.625,-578.125,-635.254,0
3.333,-986.328,985.352,-501.953,-1000.000,0
3.337,-706.543,-631.348,-591.309,586.426,0
3.341,-1000.000,-1000.000,-617.676,-788.574,0
3.344,562.012,136.230,-558.105,46.387,0
3.348,-840.820,-935.059,-450.195,-1000.000,0
3.352,-271.484,-335.938,-537.109,139.648,0
3.356,-1000.000,-1000.000,-604.004,-797.852,0
3.360,-24.414,-666.504,-576.660,729.492,0
3.364,-833.984,892.578,-483.887,-848.145,0
3.368,599.609,446.777,-552.246,-812.500,0
3.372,-993.652,-1000.000,-607.422,914.062,0
3.376,-788.574,-948.730,-566.895,967.773,0
3.380,890.625,660.156,-474.609,-702.637,0
3.384,972.656,959.961,-507.324,-1000.000,0
3.387,-705.078,-753.418,-626.465,644.043,0
3.391,-1000.000,-1000.000,-588.867,-878.418,0
3.395,673.828,560.059,-455.078,-501.465,0
3.399,923.340,979.980,-484.375,-964.355,0
3.403,-691.895,-612.305,-605.469,515.137,0
3.407,-1000.000,-1000.000,-571.777,-791.504,0
3.411,413.086,-116.699,-518.066,311.523,0
3.415,-806.641,-959.473,-536.621,-1000.000,0
3.419,-52.246,-208.984,-597.168,-102.051,0
3.423,-1000.000,-1000.000,-565.430,-842.285,0
3.426,-245.117,-755.371,-579.102,816.895,0
3.430,-889.648,823.242,-527.344,-768.555,0
3.434,703.613,668.945,-527.344,-912.598,0
3.438,-929.199,-1000.000,-521.484,839.355,0
3.442,-879.395,-979.004,-548.828,988.281,0
3.446,826.660,666.504,-546.387,-712.402,0
3.450,988.770,991.211,-504.395,-1000.000,0
3.454,-707.031,-676.758,-527.344,617.676,0
3.458,-1000.000,-1000.000,-598.633,-826.172,0
3.462,657.715,443.848,-595.215,-348.145,0
3.466,-924.805,-999.512,-520.020,-1000.000,0
3.469,-540.527,-559.082,-587.891,374.023,0
3.473,-1000.000,-1000.000,-610.840,-784.180,0
3.477,307.129,-352.051,-585.449,557.129,0
3.481,-794.922,-999.512,-506.836,-986.816,0
3.485,177.246,-8.301,-563.965,-495.605,0
3.489,-1000.000,-1000.000,-590.332,-954.590,0
3.493,-466.797,-844.727,-589.355,923.828,0
3.497,-958.008,737.305,-507.812,-695.312,0
3.501,801.758,811.035,-437.500,-990.723,0
3.505,-855.957,-934.570,-594.238,753.418,0
3.508,-962.891,-1000.000,-643.066,-971.191,0
3.512,754.395,675.781,-522.949,-685.547,0
3.516,-995.605,991.699,-503.906,-1000.000,0
3.520,-714.355,-649.414,-616.699,595.215,0
3.524,-1000.000,-1000.000,-624.023,-797.363,0
3.528,636.230,330.078,-510.254,-83.496,0
3.532,-871.582,-949.707,-491.699,-1000.000,0
3.536,-395.020,-449.707,-604.004,190.430,0
3.540,-1000.000,-1000.000,-579.102,-789.551,0
3.544,190.918,-555.176,-520.508,654.297,0
3.548,-793.457,943.848,-486.816,-928.223,0
3.551,387.207,230.957,-566.406,-727.539,0
3.555,-1000.000,-1000.000,-588.379,960.938,0
3.559,-682.129,-915.039,-513.184,953.613,0
3.563,957.520,673.828,-494.141,-696.777,0
3.567,895.020,899.902,-548.828,-1000.000,0
3.571,-775.879,-846.191,-599.121,643.555,0
3.575,-1000.000,-1000.000,-510.742,-881.836,0
3.579,677.246,635.254,-494.629,-553.711,0
3.583,-988.281,983.887,-543.457,-1000.000,0
3.587,-700.684,-628.418,-577.148,573.730,0
3.591,-1000.000,-1000.000,-601.074,-789.062,0
3.594,532.715,101.074,-590.332,139.160,0
3.598,-834.961,-942.383,-533.203,-1000.000,0
3.602,-266.113,-329.590,-569.824,-37.109,0
3.606,-1000.000,-1000.000,-565.430,-826.660,0
3.610,-24.414,-676.758,-593.262,748.047,0
3.614,-833.984,884.277,-539.062,-856.934,0
3.618,599.609,473.633,-521.973,-824.707,0
3.622,-993.652,-1000.000,-575.684,902.832,0
3.626,-788.574,-952.148,-604.004,971.191,0
3.630,890.625,660.645,-546.875,-706.055,0
3.633,972.656,964.844,-439.453,-1000.000,0
3.637,-700.195,-741.211,-523.926,626.953,0
3.641,-1000.000,-1000.000,-637.207,-844.238,0
3.645,669.922,542.969,-561.523,-419.434,0
3.649,-959.473,980.469,-442.383,-1000.000,0
3.653,-630.371,-610.840,-572.754,428.711,0
3.657,-1000.000,-1000.000,-646.484,-778.320,0
3.661,419.434,-140.625,-564.941,355.469,0
3.665,-806.641,-962.891,-506.348,-1000.000,0
3.669,-38.574,-195.312,-590.820,-296.875,0
3.673,-1000.000,-1000.000,-612.305,-892.090,0
3.676,-247.070,-764.160,-563.477,842.773,0
3.680,-889.160,813.965,-491.211,-781.738,0
3.684,703.125,686.523,-538.086,-912.598,0
3.688,-928.711,-1000.000,-620.605,835.449,0
3.692,-881.348,-981.934,-586.914,989.258,0
3.696,824.219,666.992,-502.930,-713.379,0
3.700,989.258,993.652,-534.668,-1000.000,0
3.704,-708.496,-671.875,-625.000,613.281,0
3.708,-1000.000,-1000.000,-605.469,-818.848,0
3.712,647.461,437.012,-553.223,-301.270,0
3.716,-897.949,-992.676,-517.578,-1000.000,0
3.719,-489.258,-546.875,-579.102,312.012,0
3.723,-1000.000,-1000.000,-522.949,-781.250,0
3.727,306.152,-370.605,-504.883,561.523,0
3.731,-792.969,995.117,-535.156,-990.234,0
3.735,177.246,2.930,-582.520,-519.531,0
3.739,-1000.000,-1000.000,-511.230,-963.379,0
3.743,-466.797,-863.281,-554.199,927.734,0
3.747,-958.008,715.820,-561.035,-696.289,0
3.751,801.270,818.848,-528.809,-992.188,0
3.755,-854.492,-932.129,-606.445,759.277,0
3.758,-967.773,-1000.000,-620.117,-989.258,0
3.762,748.047,676.270,-549.316,-712.891,0
3.766,-994.629,989.746,-495.605,-1000.000,0
3.770,-714.844,-645.996,-579.590,598.633,0
3.774,-1000.000,-1000.000,-592.285,-799.805,0
3.778,632.812,300.293,-551.758,-142.578,0
3.782,-864.258,-949.707,-491.211,-1000.000,0
3.786,-377.441,-437.988,-488.281,259.277,0
3.790,-1000.000,-1000.000,-572.754,-790.527,0
3.794,190.430,-577.148,-597.168,649.902,0
3.798,-792.480,933.105,-504.395,-925.293,0
3.801,387.207,256.836,-555.664,-697.266,0
3.805,-1000.000,-1000.000,-597.656,974.121,0
3.809,-682.129,-922.852,-591.309,948.242,0
3.813,957.520,666.992,-471.680,-693.359,0
3.817,895.020,906.250,-495.605,-1000.000,0
3.821,-775.879,-838.379,-602.051,650.879,0
3.825,-1000.000,-1000.000,-596.680,-901.367,0
3.829,677.246,627.930,-455.566,-593.750,0
3.833,-988.770,982.422,-468.262,-1000.000,0
3.837,-701.172,-625.488,-620.605,580.078,0
3.841,-1000.000,-1000.000,-572.266,-786.621,0
3.844,531.250,64.941,-521.484,131.348,0
3.848,-832.520,-947.266,-525.879,-1000.000,0
3.852,-257.812,-315.918,-597.656,35.156,0
3.856,-1000.000,-1000.000,-572.754,-812.012,0
3.860,-24.902,-691.895,-566.895,738.770,0
3.864,-833.496,873.047,-537.598,-852.051,0
3.868,599.121,503.418,-543.945,-825.684,0
3.872,-992.188,-1000.000,-563.477,902.344,0
3.876,-795.410,-955.566,-536.133,971.191,0
3.880,884.277,660.645,-548.340,-705.078,0
3.883,974.121,970.703,-546.387,-1000.000,0
3.887,-701.172,-730.469,-583.008,630.371,0
3.891,-1000.000,-1000.000,-620.605,-852.051,0
3.895,663.086,533.691,-576.660,-446.777,0
3.899,-938.477,979.492,-521.484,-1000.000,0
3.903,-601.562,-617.676,-539.062,453.613,0
3.907,-1000.000,-1000.000,-561.523,-778.320,0
3.911,423.340,-175.293,-582.031,348.145,0
3.915,-905.273,829.102,-511.719,-1000.000,0
3.919,-76.660,-266.602,-474.609,-211.914,0
3.923,-1000.000,-1000.000,-480.957,-878.906,0
3.926,-305.176,-803.223,-580.566,835.449,0
3.930,-903.809,795.410,-536.133,-777.344,0
3.934,706.543,694.824,-536.621,-914.062,0
3.938,-916.992,-1000.000,-612.793,835.449,0
3.942,-943.359,-981.934,-619.141,989.258,0
3.946,755.859,666.992,-525.391,-713.867,0
3.950,-996.582,995.117,-504.883,-1000.000,0
3.954,-711.914,-664.062,-592.285,612.305,0
3.958,-1000.000,-1000.000,-599.609,-815.918,0
3.962,647.461,414.551,-532.715,-307.129,0
3.965,-897.949,-993.164,-411.621,-1000.000,0
3.969,-489.258,-540.527,-565.918,344.238,0
3.973,-1000.000,-1000.000,-622.070,-782.227,0
3.977,306.152,-421.875,-558.105,559.570,0
3.981,-796.387,979.004,-532.227,-988.770,0
3.985,180.664,38.574,-581.055,-517.578,0
3.989,-1000.000,-1000.000,-580.078,-962.891,0
3.993,-541.504,-873.047,-559.570,927.246,0
3.997,-989.746,706.543,-514.160,-697.754,0
4.001,808.594,829.102,-524.902,-987.793,0
4.005,-843.750,-922.363,-611.328,746.582,0
4.008,-1000.000,-1000.000,-534.668,-951.172,0
4.012,671.875,672.852,-470.215,-653.809,0
4.016,-981.934,987.305,-536.621,-1000.000,0
4.020,-716.797,-640.137,-591.309,595.215,0
4.024,-1000.000,-1000.000,-535.156,-795.898,0
4.028,632.812,250.977,-558.105,-84.961,0
4.032,-864.258,-956.055,-563.965,-1000.000,0
4.036,-377.441,-429.688,-586.914,198.730,0
4.040,-1000.000,-1000.000,-588.379,-776.367,0
4.044,202.637,-591.797,-587.402,641.602,0
4.048,-784.668,924.316,-539.551,-936.035,0
4.051,97.168,100.586,-535.156,-437.988,0
4.055,-1000.000,-1000.000,-540.039,-915.039,0
4.059,-680.664,-898.438,-560.547,901.855,0
4.063,891.602,646.484,-543.457,-672.852,0
4.067,924.805,917.969,-510.254,-1000.000,0
4.071,-766.113,-827.637,-556.152,645.508,0
4.075,-1000.000,-1000.000,-599.609,-887.207,0
4.079,690.430,621.582,-558.105,-560.547,0
4.083,999.512,977.051,-496.582,-1000.000,0
4.087,-709.473,-633.789,-581.055,566.406,0
4.090,-789.062,-1000.000,-603.027,-969.727,0
4.094,655.762,129.883,-552.734,37.109,0
4.098,-884.277,-975.586,-463.379,-1000.000,0
4.102,-234.375,-273.926,-537.598,-80.078,0
4.106,-1000.000,-1000.000,-589.844,-829.590,0
4.110,-25.391,-704.590,-584.473,751.465,0
4.114,-833.984,865.234,-444.824,-859.375,0
4.118,596.191,536.621,-426.758,-824.219,0
4.122,-979.980,-1000.000,-595.215,902.344,0
4.126,-854.004,-959.961,-610.352,971.680,0
4.130,830.566,661.133,-528.320,-706.055,0
4.133,987.305,978.027,-515.625,-1000.000,0
4.137,-714.844,-726.074,-612.793,636.230,0
4.141,-1000.000,-1000.000,-612.793,-854.492,0
4.145,664.551,520.020,-549.805,-420.898,0
4.149,865.234,783.203,-534.180,-894.531,0
4.153,-672.852,-683.105,-591.309,503.418,0
4.157,-1000.000,-1000.000,-566.406,-812.012,0
4.161,403.809,-214.844,-544.434,371.582,0
4.165,-800.293,-962.402,-544.922,-1000.000,0
4.169,-38.574,-125.488,-582.520,-296.875,0
4.173,-1000.000,-1000.000,-564.941,-892.090,0
4.176,-246.094,-792.480,-584.473,842.773,0
4.180,-892.578,792.480,-553.223,-781.738,0
4.184,716.797,731.934,-555.176,-912.598,0
4.188,-895.508,-982.422,-535.156,835.449,0
4.192,-951.660,-989.258,-548.340,989.258,0
4.196,753.418,668.945,-562.500,-713.867,0
4.200,-996.094,997.070,-518.555,-1000.000,0
4.204,-711.914,-656.738,-548.340,613.770,0
4.208,-1000.000,-1000.000,-601.562,-820.312,0
4.212,647.461,395.996,-589.355,-297.363,0
4.215,-897.949,-982.910,-522.949,-1000.000,0
4.219,-488.770,-521.973,-567.871,291.504,0
4.223,-1000.000,-1000.000,-588.379,-780.762,0
4.227,306.152,-437.988,-595.215,562.012,0
4.231,-796.387,984.375,-514.648,-996.094,0
4.235,179.199,78.613,-481.445,-513.184,0
4.239,-1000.000,-1000.000,-547.852,-965.332,0
4.243,-557.129,-790.039,-577.148,828.125,0
4.247,994.141,728.516,-506.348,-731.934,0
4.251,812.988,821.777,-437.500,-970.215,0
4.255,-844.727,-905.762,-567.871,735.352,0
4.258,-1000.000,-1000.000,-639.160,-937.988,0
4.262,671.875,662.598,-536.621,-637.695,0
4.266,-981.934,986.328,-529.785,-1000.000,0
4.270,-716.797,-637.207,-615.234,596.191,0
4.274,-1000.000,-1000.000,-611.328,-798.340,0
4.278,637.207,215.820,-533.203,-79.102,0
4.282,-872.559,-951.660,-485.352,-1000.000,0
4.286,-369.141,-405.273,-583.496,162.109,0
4.290,-1000.000,-1000.000,-589.844,-790.039,0
4.294,144.531,-613.281,-496.094,656.250,0
4.298,-818.848,917.969,-428.223,-929.688,0
4.301,398.926,324.707,-559.570,-727.051,0
4.305,-1000.000,-1000.000,-587.402,960.938,0
4.309,-761.719,-935.547,-576.660,953.613,0
4.313,888.184,663.574,-545.898,-697.266,0
4.317,934.082,915.527,-540.527,-1000.000,0
4.321,-755.371,-816.895,-601.074,641.602,0
4.325,-1000.000,-1000.000,-597.168,-877.441,0
4.329,677.734,589.844,-552.734,-536.621,0
4.333,-988.281,982.422,-529.785,-1000.000,0
4.337,-701.172,-619.629,-569.336,550.293,0
4.340,-1000.000,-1000.000,-567.871,-788.574,0
4.344,532.715,-9.277,-577.148,142.578,0
4.348,-839.844,-953.125,-522.949,-1000.000,0
4.352,-246.582,-277.344,-556.152,-71.289,0
4.356,-1000.000,-1000.000,-576.172,-835.938,0
4.360,-158.691,-719.727,-592.773,761.719,0
4.364,-871.094,853.027,-536.133,-849.121,0
4.368,614.746,558.105,-508.301,-826.660,0
4.372,-992.676,-1000.000,-556.641,908.203,0
4.376,-856.445,-956.543,-585.938,964.844,0
4.380,818.359,660.645,-537.598,-704.102,0
4.383,890.137,878.418,-447.266,-928.711,0
4.387,-739.746,-743.652,-541.504,661.621,0
4.391,-1000.000,-1000.000,-640.137,-863.770,0
4.395,655.273,488.770,-563.477,-402.832,0
4.399,-935.547,985.352,-512.207,-1000.000,0
4.403,-597.168,-599.609,-600.586,384.766,0
4.407,-1000.000,-1000.000,-611.328,-774.902,0
4.411,420.410,-230.469,-568.359,356.445,0
4.415,-809.082,-973.145,-524.902,-1000.000,0
4.419,-34.180,-99.609,-580.566,-292.480,0
4.422,-1000.000,-1000.000,-583.984,-904.785,0
4.426,-308.105,-798.828,-556.641,886.230,0
4.430,-918.945,788.086,-490.723,-720.215,0
4.434,747.559,746.582,-534.180,-934.570,0
4.438,-880.371,-974.609,-618.652,823.730,0
4.442,-957.520,-992.188,-569.336,993.164,0
4.446,751.953,670.410,-477.051,-714.355,0
4.450,-995.605,996.094,-532.715,-1000.000,0
4.454,-711.914,-655.273,-622.559,614.258,0
4.458,-1000.000,-1000.000,-587.402,-821.777,0
4.462,647.949,382.324,-547.852,-294.922,0
4.465,-899.414,-976.074,-532.227,-1000.000,0
4.469,-485.352,-504.395,-583.984,275.879,0
4.473,-1000.000,-1000.000,-522.949,-787.109,0
4.477,284.668,-470.215,-533.203,604.492,0
4.481,-800.293,969.727,-518.066,-959.961,0
4.485,186.035,111.816,-556.152,-528.809,0
4.489,-1000.000,-1000.000,-492.188,-959.961,0
4.493,-627.930,-889.160,-472.656,924.316,0
4.497,961.914,695.801,-533.691,-689.941,0
4.501,862.793,853.027,-531.738,-1000.000,0
4.505,-809.082,-899.902,-601.074,705.078,0
4.508,-1000.000,-1000.000,-624.512,-931.152,0
4.512,673.828,661.133,-558.105,-632.812,0
4.516,-981.934,987.305,-520.020,-1000.000,0
4.520,-716.797,-639.160,-591.797,596.680,0
4.524,-1000.000,-1000.000,-597.656,-798.828,0
4.528,634.277,220.703,-543.945,-77.148,0
4.532,-870.117,-940.430,-488.281,-1000.000,0
4.536,-368.164,-382.324,-533.691,156.738,0
4.540,-1000.000,-1000.000,-587.402,-802.734,0
4.544,100.586,-630.371,-586.914,715.332,0
4.547,-812.500,913.086,-498.535,-875.488,0
4.551,396.484,356.445,-547.363,-740.723,0
4.555,-1000.000,-1000.000,-596.191,964.844,0
4.559,-757.324,-938.965,-583.496,953.125,0
4.563,876.465,662.598,-489.258,-697.266,0
4.567,975.098,928.223,-506.348,-1000.000,0
4.571,-701.660,-802.734,-603.027,643.066,0
4.575,-1000.000,-1000.000,-602.539,-882.324,0
4.579,679.199,588.379,-469.238,-524.902,0
4.583,-987.305,981.445,-487.305,-1000.000,0
4.587,-701.172,-619.141,-632.324,488.770,0
4.590,-1000.000,-1000.000,-594.727,-779.297,0
4.594,532.715,-25.879,-567.871,203.613,0
4.598,-839.844,-949.219,-534.668,-1000.000,0
4.602,-247.559,-254.883,-584.473,-77.148,0
4.606,-1000.000,-1000.000,-565.430,-845.703,0
4.610,-151.367,-719.238,-565.918,816.406,0
4.614,-876.465,855.469,-533.691,-780.762,0
4.618,656.738,590.820,-530.273,-869.629,0
4.622,-954.102,-1000.000,-557.617,878.418,0
4.626,-872.070,-967.773,-532.227,979.004,0
4.630,823.242,663.086,-521.973,-708.008,0
4.633,989.258,984.375,-529.785,-1000.000,0
4.637,-706.055,-699.219,-587.891,627.930,0
4.641,-1000.000,-1000.000,-608.887,-847.656,0
4.645,669.922,490.723,-565.918,-411.621,0
4.649,-949.707,984.375,-526.367,-1000.000,0
4.653,-584.961,-590.332,-561.523,379.395,0
4.657,-1000.000,-1000.000,-552.246,-777.344,0
4.661,397.949,-271.484,-545.898,478.027,0
4.665,-830.078,-987.793,-505.859,-1000.000,0
4.669,-15.625,-103.516,-520.020,-312.012,0
4.672,-1000.000,-1000.000,-561.035,-900.879,0
4.676,-440.918,-815.430,-603.027,901.367,0
4.680,-963.867,767.090,-535.156,-691.895,0
4.684,763.184,755.859,-501.953,-954.590,0
4.688,-895.020,-972.656,-600.098,807.129,0
4.692,-953.613,-993.164,-615.234,997.070,0
4.696,751.953,671.387,-517.090,-715.332,0
4.700,-995.605,994.141,-418.457,-1000.000,0
4.704,-711.914,-651.855,-506.348,614.746,0
4.708,-1000.000,-1000.000,-623.535,-821.777,0
4.712,649.902,362.305,-545.898,-294.922,0
4.715,-904.785,-975.586,-465.820,-1000.000,0
4.719,-475.098,-500.488,-587.402,275.879,0
4.723,-1000.000,-1000.000,-605.469,-781.738,0
4.727,222.168,-495.605,-564.453,573.730,0
4.731,-802.734,962.402,-526.855,-983.398,0
4.735,190.918,134.766,-586.914,-521.973,0
4.739,-1000.000,-1000.000,-595.215,-962.402,0
4.743,-652.344,-901.367,-552.246,927.246,0
4.747,946.777,683.594,-513.184,-697.266,0
4.751,882.812,859.375,-536.133,-988.770,0
4.755,-793.945,-892.578,-599.121,738.281,0
4.758,-1000.000,-1000.000,-532.715,-936.523,0
4.762,675.293,650.391,-427.246,-632.324,0
4.766,-984.375,985.840,-515.625,-1000.000,0
4.770,-709.473,-633.789,-616.211,596.680,0
4.774,-1000.000,-1000.000,-538.574,-798.828,0
4.778,602.051,176.270,-543.457,-77.637,0
4.782,-873.047,-947.266,-556.152,-1000.000,0
4.786,-356.934,-377.930,-577.637,155.762,0
4.790,-1000.000,-1000.000,-570.312,-800.293,0
4.794,-12.695,-640.625,-589.355,704.590,0
4.797,-836.426,906.250,-546.875,-885.742,0
4.801,462.402,378.418,-544.434,-738.281,0
4.805,-1000.000,-1000.000,-543.945,963.867,0
4.809,-764.648,-940.918,-567.871,953.125,0
4.813,879.883,662.109,-552.734,-697.266,0
4.817,975.586,937.012,-506.836,-1000.000,0
4.821,-699.219,-789.551,-519.531,642.578,0
4.825,-1000.000,-1000.000,-603.516,-881.836,0
4.829,679.688,581.055,-571.289,-524.414,0
4.833,-989.258,980.957,-494.141,-1000.000,0
4.837,-696.777,-617.676,-570.801,491.699,0
4.840,-1000.000,-1000.000,-597.168,-775.879,0
4.844,511.719,-44.434,-567.871,147.461,0
4.848,-842.285,-948.242,-465.332,-1000.000,0
4.852,-241.211,-239.746,-519.531,30.273,0
4.856,-1000.000,-1000.000,-567.383,-813.477,0
4.860,-222.656,-738.770,-586.426,792.969,0
4.864,-898.926,840.332,-448.730,-789.551,0
4.868,683.105,617.676,-472.168,-839.844,0
4.872,-947.266,-1000.000,-616.699,905.273,0
4.876,-874.023,-971.191,-597.168,971.680,0
4.879,824.707,664.062,-541.992,-706.055,0
4.883,988.770,987.305,-539.062,-1000.000,0
4.887,-706.055,-694.824,-615.723,627.930,0
4.891,-1000.000,-1000.000,-600.098,-848.145,0
4.895,661.133,482.422,-538.574,-411.133,0
4.899,-933.594,-999.512,-513.672,-1000.000,0
4.903,-589.844,-571.289,-594.727,383.301,0
4.907,-1000.000,-1000.000,-565.918,-775.879,0
4.911,407.227,-244.141,-470.215,392.578,0
4.915,-802.246,-964.355,-516.602,-1000.000,0
4.919,139.648,-45.898,-600.098,-301.758,0
4.922,-1000.000,-1000.000,-549.316,-908.691,0
4.926,-461.914,-828.125,-582.031,904.297,0
4.930,-960.449,763.184,-558.594,-693.848,0
4.934,802.734,776.367,-544.434,-948.730,0
4.938,-861.328,-965.820,-546.875,818.848,0
4.942,-957.031,-990.723,-564.941,989.258,0
4.946,752.441,671.387,-541.992,-712.891,0
4.950,904.785,894.043,-507.324,-920.410,0
4.954,-746.094,-685.059,-532.715,648.438,0
4.958,-1000.000,-1000.000,-576.660,-838.379,0
4.962,642.090,342.285,-590.820,-286.621,0
4.965,-902.832,-961.914,-521.973,-1000.000,0
4.969,-474.121,-479.492,-506.348,276.367,0
4.973,-1000.000,-1000.000,-549.316,-788.086,0
4.977,202.637,-509.766,-598.145,609.863,0
4.981,-799.805,961.426,-525.391,-955.566,0
4.985,292.480,171.387,-568.359,-529.785,0
4.989,-1000.000,-1000.000,-585.449,-958.984,0
4.993,-667.480,-904.785,-572.266,922.363,0
4.997,950.195,683.105,-512.695,-683.594,0
5.001,897.461,872.070,-532.715,-1000.000,0
5.004,-775.879,-877.930,-608.887,676.758,0
5.008,-1000.000,-1000.000,-616.211,-926.270,0
5.012,676.758,645.996,-522.949,-633.789,0
5.016,-986.328,988.281,-418.945,-1000.000,0
5.020,-704.102,-635.742,-574.707,598.633,0
5.024,-1000.000,-1000.000,-611.328,-796.875,0
5.028,575.195,212.891,-524.414,-128.418,0
5.032,-869.629,-921.387,-501.465,-1000.000,0
5.036,-357.422,-367.188,-588.867,166.016,0
5.040,-1000.000,-1000.000,-560.059,-807.617,0
5.044,-19.043,-650.879,-500.977,717.773,0
5.047,-838.867,904.297,-518.066,-868.164,0
5.051,599.609,422.363,-586.426,-778.809,0
5.055,-993.652,-1000.000,-577.148,936.035,0
5.059,-788.574,-946.777,-532.227,961.426,0
5.063,891.113,663.574,-523.438,-699.707,0
5.067,972.656,942.383,-558.594,-1000.000,0
5.071,-699.219,-776.855,-588.379,643.066,0
5.075,-1000.000,-1000.000,-536.621,-881.836,0
5.079,681.152,564.941,-541.992,-525.391,0
5.083,-993.652,981.445,-553.223,-1000.000,0
5.087,-685.547,-614.746,-568.359,486.328,0
5.090,-1000.000,-1000.000,-479.004,-777.832,0
5.094,451.660,-76.660,-535.645,240.723,0
5.098,-836.426,-955.566,-559.082,-1000.000,0
5.102,-229.492,-233.398,-573.242,-82.520,0
5.106,-1000.000,-1000.000,-584.473,-844.238,0
5.110,-223.633,-749.023,-595.215,816.895,0
5.114,-902.344,830.078,-541.504,-769.043,0
5.118,706.543,641.602,-538.086,-907.227,0
5.122,-928.711,-1000.000,-584.473,844.238,0
5.126,-879.395,-974.609,-589.844,986.816,0
5.129,826.172,665.527,-525.879,-710.938,0
5.133,988.770,987.793,-454.590,-1000.000,0
5.137,-706.055,-683.594,-558.594,622.559,0
5.141,-1000.000,-1000.000,-632.812,-836.426,0
5.145,665.527,453.613,-556.641,-378.418,0
5.149,-946.289,991.211,-448.730,-1000.000,0
5.153,-580.566,-575.195,-572.266,375.000,0
5.157,-1000.000,-1000.000,-621.094,-780.762,0
5.161,319.824,-332.520,-556.641,550.781,0
5.165,-808.105,-998.047,-432.129,-988.281,0
5.169,32.715,-43.457,-553.711,-388.184,0
5.172,-1000.000,-1000.000,-617.188,-916.504,0
5.176,-439.941,-833.008,-557.129,802.246,0
5.180,-970.703,742.676,-442.383,-718.750,0
5.184,704.102,682.617,-522.461,-879.883,0
5.188,-887.207,-993.164,-625.488,786.621,0
5.192,-956.055,-981.934,-576.660,993.164,0
5.196,734.863,665.527,-494.629,-710.938,0
5.200,-991.211,995.117,-531.738,-1000.000,0
5.204,-712.402,-648.926,-622.559,602.539,0
5.208,-1000.000,-1000.000,-587.891,-805.664,0
5.212,650.391,335.938,-556.641,-180.664,0
5.215,-905.762,-960.449,-531.738,-1000.000,0
5.219,-473.633,-469.238,-586.426,263.672,0
5.223,-1000.000,-1000.000,-513.672,-790.527,0
5.227,198.730,-540.527,-520.996,648.438,0
5.231,-793.945,953.125,-556.152,-931.641,0
5.235,310.547,189.941,-584.961,-637.695,0
5.239,-1000.000,-1000.000,-503.906,995.117,0
5.243,-571.289,-814.453,-542.480,839.355,0
5.247,986.328,708.984,-558.594,-722.656,0
5.251,880.859,858.887,-535.156,-1000.000,0
5.254,-768.066,-865.234,-578.125,646.484,0
5.258,-1000.000,-1000.000,-610.352,-907.227,0
5.262,677.246,636.230,-567.383,-609.863,0
5.266,-988.281,985.352,-515.625,-1000.000,0
5.270,-698.242,-630.371,-599.121,582.031,0
5.274,-1000.000,-1000.000,-591.797,-786.621,0
5.278,546.875,132.324,-556.641,104.980,0
5.282,-864.746,-942.871,-506.836,-1000.000,0
5.286,-352.051,-349.121,-578.613,83.008,0
5.290,-1000.000,-1000.000,-593.750,-804.199,0
5.294,-19.043,-667.969,-583.984,734.375,0
5.297,-838.379,889.160,-504.883,-851.074,0
5.301,598.633,430.176,-513.672,-814.941,0
5.305,-994.141,-1000.000,-574.707,911.133,0
5.309,-788.086,-946.289,-593.750,968.750,0
5.313,891.113,660.156,-477.539,-704.102,0
5.317,972.656,954.590,-484.375,-1000.000,0
5.321,-699.219,-759.277,-614.258,632.812,0
5.325,-1000.000,-1000.000,-592.773,-857.422,0
5.329,681.641,557.129,-499.023,-468.750,0
5.333,-995.117,980.469,-510.742,-1000.000,0
5.336,-684.570,-612.793,-626.465,478.027,0
5.340,-1000.000,-1000.000,-577.637,-775.391,0
5.344,428.223,-112.793,-489.258,343.262,0
5.348,-815.430,-954.102,-508.301,-1000.000,0
5.352,-132.324,-218.262,-603.516,-151.367,0
5.356,-1000.000,-1000.000,-567.383,-854.980,0
5.360,-136.719,-660.645,-564.453,723.633,0
5.364,-861.328,853.027,-523.438,-805.176,0
5.368,688.477,650.391,-544.434,-899.414,0
5.372,-920.898,-1000.000,-575.195,827.637,0
5.376,-882.324,-981.445,-516.113,991.699,0
5.379,826.660,666.016,-530.273,-711.426,0
5.383,988.770,991.211,-550.781,-1000.000,0
5.387,-706.055,-676.758,-589.844,623.535,0
5.391,-1000.000,-1000.000,-606.445,-839.844,0
5.395,663.574,445.312,-574.219,-387.695,0
5.399,-941.406,-999.512,-539.551,-1000.000,0
5.403,-571.777,-558.594,-560.059,375.977,0
5.407,-1000.000,-1000.000,-543.457,-780.273,0
5.411,307.617,-357.422,-568.359,531.250,0
5.415,-795.898,998.047,-534.668,-991.211,0
5.419,177.246,-11.230,-481.934,-383.789,0
5.422,-1000.000,-1000.000,-440.918,-918.945,0
5.426,-466.797,-850.586,-578.125,907.227,0
5.430,-957.520,731.934,-570.312,-686.035,0
5.434,799.805,803.223,-541.016,-995.605,0
5.438,-849.609,-942.871,-623.047,760.742,0
5.442,-984.863,-1000.000,-627.930,-993.652,0
5.446,726.074,675.293,-550.293,-718.750,0
5.450,-991.211,991.699,-529.297,-1000.000,0
5.454,-714.355,-648.438,-605.469,603.027,0
5.458,-1000.000,-1000.000,-599.121,-806.152,0
5.461,640.625,325.195,-541.016,-184.570,0
5.465,-882.812,-950.684,-507.812,-1000.000,0
5.469,-420.898,-450.195,-594.727,264.160,0
5.473,-1000.000,-1000.000,-580.078,-791.504,0
5.477,192.383,-562.988,-541.992,648.926,0
5.481,-794.434,938.477,-511.719,-926.270,0
5.485,387.207,225.586,-570.312,-657.227,0
5.489,-1000.000,-1000.000,-576.660,991.699,0
5.493,-682.129,-916.992,-538.574,940.918,0
5.497,957.520,671.387,-465.332,-689.453,0
5.501,895.020,893.555,-518.066,-1000.000,0
5.504,-775.879,-852.539,-613.281,659.180,0
5.508,-1000.000,-1000.000,-544.922,-923.828,0
5.512,677.246,632.324,-517.578,-635.742,0
5.516,-988.281,983.887,-557.129,-1000.000,0
5.520,-700.684,-628.418,-597.168,584.473,0
5.524,-1000.000,-1000.000,-514.648,-788.574,0
5.528,532.715,101.562,-546.875,74.219,0
5.532,-834.961,-940.918,-568.848,-1000.000,0
5.536,-265.625,-326.172,-569.824,101.074,0
5.540,-1000.000,-1000.000,-489.746,-798.340,0
5.544,-18.555,-677.246,-547.363,727.051,0
5.547,-835.938,876.465,-564.941,-850.098,0
5.551,499.023,357.422,-562.988,-704.102,0
5.555,-1000.000,-1000.000,-570.312,954.102,0
5.559,-787.109,-933.105,-574.219,950.195,0
5.563,869.141,651.855,-560.059,-694.824,0
5.567,978.516,966.309,-508.789,-1000.000,0
5.571,-701.172,-744.141,-529.297,635.742,0
5.575,-1000.000,-1000.000,-609.863,-864.746,0
5.579,677.246,543.457,-580.566,-485.840,0
5.583,-972.168,980.469,-520.508,-1000.000,0
5.586,-638.184,-611.328,-595.703,479.004,0
5.590,-1000.000,-1000.000,-580.566,-778.320,0
5.594,453.613,-135.742,-560.059,345.703,0
5.598,-822.754,-962.402,-464.844,-1000.000,0
5.602,-30.273,-197.754,-504.883,-191.406,0
5.606,-1000.000,-1000.000,-583.496,-862.793,0
5.610,-247.070,-773.438,-596.680,828.613,0
5.614,-888.672,806.152,-454.590,-776.855,0
5.618,699.219,668.945,-502.930,-901.367,0
5.622,-914.551,-1000.000,-620.605,848.145,0
5.626,-937.988,-978.027,-598.633,985.840,0
5.629,762.695,665.039,-553.711,-711.426,0
5.633,-998.047,995.117,-542.969,-1000.000,0
5.637,-711.426,-671.387,-615.234,619.141,0
5.641,-1000.000,-1000.000,-593.750,-829.102,0
5.645,647.949,439.941,-552.734,-351.562,0
5.649,-898.926,-990.723,-507.324,-1000.000,0
5.653,-491.211,-544.434,-572.754,360.352,0
5.657,-1000.000,-1000.000,-553.711,-782.715,0
5.661,306.152,-368.652,-483.398,556.641,0
5.665,-793.457,997.559,-532.227,-986.816,0
5.669,177.734,14.160,-604.004,-474.609,0
5.672,-1000.000,-1000.000,-538.574,-947.754,0
5.676,-472.168,-864.258,-569.336,920.410,0
5.680,-959.473,718.262,-564.941,-693.359,0
5.684,797.363,812.988,-546.387,-992.188,0
5.688,-839.844,-936.523,-549.316,756.836,0
5.692,-1000.000,-1000.000,-572.754,-981.445,0
5.696,678.711,676.270,-557.129,-700.195,0
5.700,-983.398,989.258,-513.672,-1000.000,0
5.704,-716.309,-644.531,-518.066,598.145,0
5.708,-1000.000,-1000.000,-557.617,-799.316,0
5.711,635.254,291.504,-575.195,-134.277,0
5.715,-869.629,-951.660,-521.484,-1000.000,0
5.719,-389.648,-439.453,-559.570,248.535,0
5.723,-1000.000,-1000.000,-571.777,-790.527,0
5.727,190.918,-571.289,-602.051,651.367,0
5.731,-793.945,937.012,-534.668,-930.664,0
5.735,386.230,266.113,-548.340,-703.125,0
5.739,-1000.000,-1000.000,-573.242,966.797,0
5.743,-724.609,-926.758,-581.055,850.586,0
5.747,925.293,666.016,-517.578,-728.027,0
5.751,904.785,902.344,-462.891,-1000.000,0
5.754,-779.297,-841.797,-589.844,644.043,0
5.758,-1000.000,-1000.000,-636.719,-902.344,0
5.762,677.246,626.465,-548.828,-599.609,0
5.766,-988.770,987.305,-524.902,-1000.000,0
5.770,-701.172,-632.324,-595.703,587.891,0
5.774,-1000.000,-1000.000,-580.078,-790.527,0
5.778,531.250,159.180,-527.344,19.531,0
5.782,-832.520,-916.016,-506.836,-1000.000,0
5.786,-257.812,-328.125,-597.656,46.387,0
5.790,-1000.000,-1000.000,-557.617,-822.266,0
5.793,-24.902,-693.848,-498.047,743.164,0
5.797,-833.984,872.070,-516.113,-853.516,0
5.801,595.703,476.074,-590.332,-819.336,0
5.805,-977.539,-1000.000,-587.402,907.227,0
5.809,-865.234,-952.148,-512.695,969.727,0
5.813,820.312,661.621,-514.160,-704.590,0
5.817,989.746,960.449,-565.918,-1000.000,0
5.821,-705.078,-743.164,-601.562,630.859,0
5.825,-1000.000,-1000.000,-614.258,-854.004,0
5.829,672.852,531.250,-564.941,-460.449,0
5.833,-968.262,979.004,-537.109,-1000.000,0
5.836,-643.555,-607.910,-574.219,478.516,0
5.840,-1000.000,-1000.000,-485.840,-778.809,0
5.844,420.410,-178.711,-547.363,348.145,0
5.848,-812.500,-975.586,-562.988,-1000.000,0
5.852,-31.738,-191.406,-578.125,-215.332,0
5.856,-1000.000,-1000.000,-571.777,-869.629,0
5.860,-350.098,-785.645,-594.727,831.055,0
5.864,-924.805,791.992,-556.641,-775.391,0
5.868,714.355,692.383,-542.480,-914.551,0
5.872,-919.434,-1000.000,-586.426,835.449,0
5.876,-947.754,-981.934,-587.402,988.770,0
5.879,750.000,666.992,-549.316,-713.379,0
5.883,-995.117,993.164,-451.172,-1000.000,0
5.887,-710.938,-665.527,-477.539,614.258,0
5.891,-1000.000,-1000.000,-598.633,-819.824,0
5.895,655.762,411.621,-583.984,-329.590,0
5.899,-919.434,-996.582,-466.309,-1000.000,0
5.903,-529.785,-544.434,-568.359,372.559,0
5.907,-1000.000,-1000.000,-598.145,-782.227,0
5.911,305.176,-427.246,-565.918,556.152,0
5.915,-800.293,974.609,-542.969,-991.211,0
5.918,183.105,23.438,-593.750,-469.727,0
5.922,-1000.000,-1000.000,-567.871,-950.195,0
5.926,-596.191,-870.605,-560.547,821.289,0
5.930,986.328,707.520,-513.184,-727.539,0
5.934,818.359,822.266,-530.273,-974.609,0
5.938,-847.656,-929.199,-609.863,744.629,0
5.942,-1000.000,-1000.000,-584.961,-965.332,0
5.946,671.875,673.340,-520.996,-680.664,0
5.950,-981.934,986.816,-540.527,-1000.000,0
5.954,-716.797,-640.137,-610.352,594.727,0
5.958,-1000.000,-1000.000,-550.781,-796.387,0
5.961,632.812,248.047,-534.668,-85.449,0
5.965,-864.258,-954.590,-534.180,-1000.000,0
5.969,-377.441,-428.223,-584.961,203.125,0
5.973,-1000.000,-1000.000,-519.531,-789.062,0
5.977,190.430,-580.078,-465.332,653.809,0
5.981,-793.457,932.129,-532.715,-927.246,0
5.985,385.742,272.461,-579.102,-727.051,0
5.989,-1000.000,-1000.000,-489.258,960.938,0
5.993,-744.629,-927.734,-567.383,953.125,0
5.997,909.668,664.551,-585.449,-696.289,0
6.001,908.691,908.691,-543.945,-1000.000,0
6.004,-780.762,-831.055,-592.773,645.996,0
6.008,-1000.000,-1000.000,-605.957,-887.695,0
6.012,677.246,611.816,-571.289,-567.871,0
6.016,-988.770,982.910,-513.672,-1000.000,0
6.020,-700.684,-623.047,-578.125,580.078,0
6.024,-1000.000,-1000.000,-577.637,-788.574,0
6.028,532.227,36.133,-569.824,135.254,0
6.032,-836.914,-951.172,-523.438,-1000.000,0
6.036,-250.977,-304.199,-512.207,-2.441,0
6.040,-1000.000,-1000.000,-564.453,-819.824,0
6.043,-106.934,-704.102,-596.680,743.652,0
6.047,-856.445,863.281,-519.531,-854.980,0
6.051,607.422,516.602,-550.293,-825.195,0
6.055,-986.328,-1000.000,-588.867,902.344,0
6.059,-852.051,-956.543,-581.543,971.191,0
6.063,830.566,659.668,-503.418,-706.055,0
6.067,987.305,978.027,-496.094,-1000.000,0
6.071,-704.102,-716.309,-596.680,625.488,0
6.075,-1000.000,-1000.000,-613.281,-840.332,0
6.079,676.270,515.625,-482.910,-429.199,0
6.083,-978.516,978.027,-465.332,-1000.000,0
6.086,-653.320,-604.980,-613.770,477.539,0
6.090,-1000.000,-1000.000,-576.660,-779.785,0
6.094,398.926,-218.750,-569.824,351.562,0
6.098,-812.012,-984.863,-541.016,-1000.000,0
6.102,-30.762,-169.922,-593.262,-259.277,0
6.106,-1000.000,-1000.000,-562.500,-881.348,0
6.110,-353.027,-787.109,-568.359,837.402,0
6.114,-925.781,789.551,-556.641,-778.809,0
6.118,714.844,725.098,-544.922,-913.574,0
6.122,-919.922,-986.816,-556.641,835.449,0
6.126,-947.754,-988.281,-508.301,989.258,0
6.129,749.512,669.922,-533.691,-713.867,0
6.133,-995.605,992.188,-555.664,-1000.000,0
6.137,-710.938,-662.598,-596.680,613.281,0
6.141,-1000.000,-1000.000,-600.098,-817.871,0
6.145,655.762,398.438,-569.336,-302.734,0
6.149,-920.410,-994.629,-530.273,-1000.000,0
6.153,-523.438,-540.039,-575.195,319.336,0
6.157,-1000.000,-1000.000,-555.664,-781.738,0
6.161,279.297,-438.965,-579.102,561.035,0
6.165,-802.734,974.609,-533.203,-989.746,0
6.168,186.523,59.082,-497.559,-519.531,0
6.172,-1000.000,-1000.000,-536.133,-963.379,0
6.176,-643.066,-880.371,-597.168,927.734,0
6.180,965.820,702.148,-538.574,-698.242,0
6.184,826.660,829.590,-458.496,-985.840,0
6.188,-851.562,-921.875,-531.738,742.188,0
6.192,-1000.000,-1000.000,-631.348,-937.012,0
6.196,671.875,668.457,-560.547,-631.836,0
6.200,-981.934,986.816,-520.996,-1000.000,0
6.204,-716.797,-638.672,-613.770,596.191,0
6.208,-1000.000,-1000.000,-607.910,-798.828,0
6.211,634.277,237.793,-543.457,-77.637,0
6.215,-871.094,-956.055,-505.859,-1000.000,0
6.219,-366.211,-423.340,-596.680,154.785,0
6.223,-1000.000,-1000.000,-581.543,-793.945,0
6.227,82.031,-609.375,-562.012,676.270,0
6.231,-815.918,916.992,-532.227,-912.109,0
6.235,398.438,290.527,-582.031,-731.445,0
6.239,-1000.000,-1000.000,-552.246,961.914,0
6.243,-763.184,-931.152,-517.090,953.613,0
6.247,894.043,662.598,-496.582,-696.777,0
6.250,913.574,908.203,-521.484,-1000.000,0
6.254,-782.227,-829.102,-611.328,642.578,0
6.258,-1000.000,-1000.000,-541.992,-879.395,0
6.262,678.223,602.539,-425.781,-531.250,0
6.266,-991.211,980.957,-501.465,-1000.000,0
6.270,-694.336,-619.629,-614.258,524.902,0
6.274,-1000.000,-1000.000,-569.824,-785.156,0
6.278,498.047,-1.953,-578.613,142.578,0
6.282,-834.473,-959.473,-550.781,-1000.000,0
6.286,-250.488,-297.852,-578.125,-69.824,0
6.290,-1000.000,-1000.000,-573.242,-840.820,0
6.293,-107.910,-705.078,-588.379,779.785,0
6.297,-856.934,863.281,-527.344,-829.102,0
6.301,608.398,560.059,-527.832,-830.566,0
6.305,-988.281,-1000.000,-514.160,904.297,0
6.309,-842.285,-963.867,-580.078,971.680,0
6.313,839.355,662.598,-571.777,-706.055,0
6.317,984.863,978.027,-517.090,-1000.000,0
6.321,-704.590,-713.379,-592.773,627.930,0
6.325,-1000.000,-1000.000,-617.676,-848.145,0
6.329,663.086,510.742,-562.012,-411.133,0
6.333,-938.477,979.004,-509.277,-1000.000,0
6.336,-597.168,-609.863,-595.215,384.766,0
6.340,-1000.000,-1000.000,-572.754,-774.902,0
6.344,420.898,-217.285,-557.129,356.445,0
6.348,-814.453,934.570,-490.234,-1000.000,0
6.352,-27.344,-179.688,-532.715,-293.457,0
6.356,-1000.000,-1000.000,-579.102,-902.344,0
6.360,-413.086,-805.176,-570.312,878.418,0
6.364,-946.777,784.180,-486.816,-734.375,0
6.368,724.609,726.074,-550.781,-920.410,0
6.372,-924.316,-987.793,-625.977,836.426,0
6.375,-946.289,-987.793,-595.703,989.746,0
6.379,749.512,668.457,-459.961,-713.867,0
6.383,-995.605,997.070,-497.070,-1000.000,0
6.387,-711.914,-656.250,-640.625,614.258,0
6.391,-1000.000,-1000.000,-583.496,-821.777,0
6.395,647.461,396.484,-548.828,-294.434,0
6.399,-897.949,-979.004,-520.508,-1000.000,0
6.403,-488.770,-541.504,-591.797,285.156,0
6.407,-1000.000,-1000.000,-562.012,-778.809,0
6.411,306.152,-243.164,-494.141,366.699,0
6.415,-796.875,-944.336,-500.488,-1000.000,0
6.418,180.664,65.918,-580.566,-485.840,0
6.422,-1000.000,-1000.000,-549.805,-978.516,0
6.426,-544.434,-881.836,-578.125,930.176,0
6.430,-999.023,710.938,-558.105,-688.965,0
6.434,838.867,848.145,-541.504,-1000.000,0
6.438,-812.012,-902.832,-555.176,701.172,0
6.442,-1000.000,-1000.000,-567.383,-930.176,0
6.446,673.340,667.480,-559.082,-632.812,0
6.450,-981.934,986.328,-521.484,-1000.000,0
6.454,-716.797,-638.184,-543.457,596.680,0
6.458,-1000.000,-1000.000,-575.684,-798.828,0
6.461,634.766,226.562,-599.609,-77.148,0
6.465,-873.047,-953.125,-545.898,-1000.000,0
6.469,-363.281,-412.598,-532.715,154.785,0
6.473,-1000.000,-1000.000,-525.879,-795.410,0
6.477,53.223,-612.305,-594.238,682.617,0
6.481,-821.777,917.480,-521.973,-905.762,0
6.485,402.344,317.871,-520.996,-732.910,0
6.489,-1000.000,-1000.000,-572.754,962.891,0
6.493,-761.230,-934.570,-585.938,953.125,0
6.497,889.160,662.109,-522.949,-697.266,0
6.500,930.176,919.434,-432.617,-1000.000,0
6.504,-759.766,-814.941,-540.527,642.578,0
6.508,-1000.000,-1000.000,-639.160,-880.859,0
6.512,677.734,596.680,-560.059,-526.855,0
6.516,-988.281,982.910,-527.832,-1000.000,0
6.520,-701.172,-621.582,-618.164,503.418,0
6.524,-1000.000,-1000.000,-592.773,-782.227,0
6.528,533.691,10.254,-534.668,142.578,0
6.532,-844.238,-947.754,-513.184,-1000.000,0
6.536,-241.699,-277.832,-585.449,-70.312,0
6.540,-1000.000,-1000.000,-557.129,-840.332,0
6.543,-224.121,-720.703,-500.000,777.832,0
6.547,-889.160,851.074,-431.152,-832.031,0
6.551,624.023,535.645,-562.988,-829.590,0
6.555,-992.188,-1000.000,-603.516,903.809,0
6.559,-861.328,-958.984,-552.734,971.191,0
6.563,820.312,661.133,-554.199,-706.055,0
6.567,989.746,977.051,-552.734,-1000.000,0
6.571,-706.055,-713.379,-594.238,626.953,0
6.575,-1000.000,-1000.000,-600.098,-845.215,0
6.579,669.922,503.418,-578.613,-417.480,0
6.583,-949.707,977.539,-548.828,-1000.000,0
6.586,-585.449,-603.516,-545.410,419.434,0
6.590,-1000.000,-1000.000,-486.816,-777.344,0
6.594,398.438,-244.141,-542.969,355.957,0
6.598,-830.078,-985.840,-550.781,-1000.000,0
6.602,-15.625,-136.719,-564.453,-294.922,0
6.606,-1000.000,-1000.000,-461.426,-897.461,0
6.610,-442.383,-805.664,-549.805,861.328,0
6.614,-957.031,775.391,-564.453,-757.324,0
6.618,729.004,727.051,-524.902,-916.992,0
6.622,-926.758,-988.770,-565.430,836.426,0
6.625,-945.801,-987.793,-586.914,989.746,0
6.629,749.512,668.945,-571.777,-713.867,0
6.633,-995.605,995.605,-468.750,-1000.000,0
6.637,-711.914,-652.832,-491.699,613.770,0
6.641,-1000.000,-1000.000,-596.680,-820.312,0
6.645,649.902,376.953,-581.543,-298.340,0
6.649,-904.297,-988.281,-524.414,-1000.000,0
6.653,-476.074,-525.391,-599.121,296.387,0
6.657,-1000.000,-1000.000,-587.402,-780.762,0
6.661,226.562,-470.215,-570.801,562.012,0
6.665,-802.734,966.309,-505.371,-996.094,0
6.668,190.430,90.820,-577.148,-513.184,0
6.672,-1000.000,-1000.000,-577.637,-965.332,0
6.676,-656.250,-890.137,-560.547,828.125,0
6.680,959.961,692.383,-525.879,-731.934,0
6.684,829.102,842.285,-535.645,-969.727,0
6.688,-852.539,-908.691,-607.910,734.375,0
6.692,-1000.000,-1000.000,-583.496,-934.570,0
6.696,671.875,656.738,-490.723,-631.836,0
6.700,-981.934,987.305,-529.785,-1000.000,0
6.704,-716.797,-638.672,-608.887,596.680,0
6.707,-1000.000,-1000.000,-555.664,-798.828,0
6.711,644.043,218.262,-562.500,-77.148,0
6.715,-877.441,-938.965,-537.109,-1000.000,0
6.719,-378.418,-396.973,-563.477,163.574,0
6.723,-975.586,-1000.000,-521.973,-788.574,0
6.727,233.398,-516.602,-529.785,460.449,0
6.731,-840.332,952.148,-538.086,-1000.000,0
6.735,409.180,319.824,-573.730,-693.848,0
6.739,-1000.000,-1000.000,-470.215,944.824,0
6.743,-764.648,-939.941,-523.926,958.984,0
6.747,894.043,664.062,-578.613,-696.777,0
6.750,913.574,914.551,-522.461,-1000.000,0
6.754,-782.227,-815.918,-603.027,642.578,0
6.758,-1000.000,-1000.000,-623.535,-880.859,0
6.762,677.246,584.473,-568.359,-527.832,0
6.766,-988.281,982.910,-523.438,-1000.000,0
6.770,-701.172,-621.094,-575.684,507.812,0
6.774,-1000.000,-1000.000,-557.617,-783.203,0
6.778,533.691,0.000,-567.871,142.578,0
6.782,-844.238,-944.824,-520.020,-1000.000,0
6.786,-241.211,-263.672,-490.234,-70.801,0
6.790,-1000.000,-1000.000,-548.828,-837.891,0
6.793,-224.121,-720.215,-595.215,767.090,0
6.797,-889.160,854.492,-519.531,-843.262,0
6.801,623.535,568.359,-565.918,-827.637,0
6.805,-992.188,-1000.000,-589.355,903.320,0
6.809,-861.328,-964.355,-579.102,971.680,0
6.813,820.312,662.598,-526.367,-706.055,0
6.817,989.746,980.957,-529.297,-1000.000,0
6.821,-706.055,-707.031,-597.168,627.441,0
6.825,-1000.000,-1000.000,-592.773,-846.191,0
6.829,665.039,500.977,-482.910,-414.551,0
6.832,-944.336,979.980,-423.340,-1000.000,0
6.836,-584.473,-599.609,-591.309,404.785,0
6.840,-1000.000,-1000.000,-583.496,-776.367,0
6.844,349.609,-252.441,-561.523,355.957,0
6.848,-813.477,-982.910,-544.434,-1000.000,0
6.852,-22.949,-108.887,-595.703,-294.922,0
6.856,-1000.000,-1000.000,-560.059,-898.926,0
6.860,-441.406,-806.641,-573.730,865.723,0
6.864,-960.938,776.855,-561.035,-751.465,0
6.868,752.441,753.906,-544.434,-917.969,0
6.872,-905.273,-972.168,-574.219,835.938,0
6.875,-951.172,-993.164,-589.355,989.746,0
6.879,751.465,670.898,-564.941,-713.867,0
6.883,-995.117,995.117,-556.152,-1000.000,0
6.887,-711.914,-653.320,-577.637,614.258,0
6.891,-1000.000,-1000.000,-442.871,-821.777,0
6.895,649.902,375.000,-533.203,-294.922,0
6.899,-904.297,-980.957,-575.684,-1000.000,0
6.903,-475.586,-513.184,-561.035,275.879,0
6.907,-1000.000,-1000.000,-537.109,-780.273,0
6.911,225.098,-473.145,-575.195,562.500,0
6.915,-802.734,969.727,-541.016,-991.699,0
6.918,190.918,125.977,-494.629,-519.531,0
6.922,-1000.000,-1000.000,-520.020,-963.379,0
6.926,-654.297,-895.508,-602.051,927.734,0
6.930,953.125,691.406,-554.199,-698.242,0
6.934,855.469,855.957,-458.008,-985.840,0
6.938,-823.730,-895.996,-561.035,742.188,0
6.942,-1000.000,-1000.000,-624.512,-937.012,0
6.946,673.828,656.250,-537.109,-631.836,0
6.950,-984.375,988.770,-498.535,-1000.000,0
6.954,-710.449,-638.672,-599.609,602.539,0
6.957,-1000.000,-1000.000,-600.586,-800.293,0
6.961,605.469,242.676,-546.387,-176.758,0
6.965,-873.047,-931.641,-491.699,-1000.000,0
6.969,-357.422,-394.531,-588.379,170.410,0
6.973,-1000.000,-1000.000,-579.102,-799.805,0
6.977,-6.348,-631.836,-557.129,668.945,0
6.981,-834.473,912.109,-549.316,-921.387,0
6.985,409.180,359.375,-579.590,-729.492,0
6.989,-1000.000,-1000.000,-555.664,961.426,0
6.993,-758.301,-939.453,-556.641,953.613,0
6.997,883.789,663.086,-536.621,-696.777,0
7.000,950.195,927.734,-528.809,-1000.000,0
7.004,-733.887,-802.246,-590.332,643.066,0
7.008,-1000.000,-1000.000,-537.109,-881.836,0
7.012,679.688,583.496,-447.266,-524.414,0
7.016,-992.188,981.934,-526.855,-1000.000,0
7.020,-690.918,-618.164,-622.559,492.676,0
7.024,-1000.000,-1000.000,-552.246,-781.250,0
7.028,481.445,-30.762,-577.148,142.578,0
7.032,-839.844,-951.172,-572.754,-1000.000,0
7.036,-240.234,-255.859,-589.355,-69.824,0
7.040,-1000.000,-1000.000,-550.781,-835.938,0
7.043,-224.121,-725.098,-582.031,773.926,0
7.047,-890.625,851.074,-556.641,-827.148,0
7.051,631.348,591.797,-548.828,-730.957,0
7.055,-986.816,-1000.000,-549.316,937.988,0
7.059,-862.793,-967.773,-571.777,955.566,0
7.063,820.801,664.062,-557.129,-697.754,0
7.067,989.746,981.934,-523.926,-1000.000,0
7.071,-706.055,-702.148,-586.426,627.930,0
7.075,-1000.000,-1000.000,-604.980,-847.656,0
7.079,670.898,488.281,-576.172,-411.133,0
7.082,-952.148,983.887,-528.809,-1000.000,0
7.086,-578.125,-590.820,-580.566,387.207,0
7.090,-1000.000,-1000.000,-566.895,-774.902,0
7.094,358.398,-273.438,-549.805,356.445,0
7.098,-829.102,-987.793,-493.652,-1000.000,0
7.102,-13.672,-100.586,-545.410,-292.969,0
7.106,-1000.000,-1000.000,-550.293,-903.320,0
7.110,-442.383,-818.848,-571.289,881.836,0
7.114,-956.543,764.648,-481.934,-730.469,0
7.118,729.004,747.559,-511.719,-921.387,0
7.122,-925.781,-978.516,-609.863,836.914,0
7.125,-949.707,-991.211,-591.797,990.234,0
7.129,744.629,670.410,-457.031,-713.867,0
7.133,-994.629,994.629,-485.352,-1000.000,0
7.137,-711.914,-651.367,-625.488,614.258,0
7.141,-1000.000,-1000.000,-572.266,-821.777,0
7.145,650.391,362.793,-476.562,-294.922,0
7.149,-905.762,-979.980,-488.770,-1000.000,0
7.153,-472.656,-508.301,-607.910,275.391,0
7.157,-1000.000,-1000.000,-538.086,-781.738,0
7.161,207.031,-491.699,-483.887,574.219,0
7.164,-803.223,961.914,-543.945,-982.910,0
7.168,191.895,120.117,-613.281,-521.973,0
7.172,-1000.000,-1000.000,-529.785,-962.402,0
7.176,-656.250,-899.414,-466.797,925.781,0
7.180,959.961,684.082,-496.582,-693.359,0
7.184,829.102,854.980,-563.965,-1000.000,0
7.188,-852.539,-896.973,-585.449,720.703,0
7.192,-1000.000,-1000.000,-603.516,-933.594,0
7.196,673.340,650.879,-564.453,-632.324,0
7.200,-987.793,985.352,-533.691,-1000.000,0
7.204,-701.172,-633.789,-522.461,596.680,0
7.207,-1000.000,-1000.000,-468.750,-798.340,0
7.211,562.012,180.176,-569.336,-77.637,0
7.215,-868.164,-952.148,-559.082,-1000.000,0
7.219,-356.934,-390.137,-601.074,156.738,0
7.223,-1000.000,-1000.000,-586.426,-803.711,0
7.227,-10.742,-636.719,-592.773,722.656,0
7.231,-830.078,906.738,-547.363,-874.512,0
7.235,403.809,358.887,-555.176,-737.793,0
7.239,-1000.000,-1000.000,-567.871,961.914,0
7.243,-659.180,-938.965,-571.777,854.492,0
7.247,919.434,663.086,-520.020,-730.957,0
7.250,928.223,926.758,-524.902,-1000.000,0
7.254,-733.398,-799.316,-615.234,635.254,0
7.258,-1000.000,-1000.000,-621.582,-878.906,0
7.262,680.664,572.266,-544.922,-524.902,0
7.266,-995.605,981.445,-429.688,-1000.000,0
7.270,-682.617,-615.723,-578.125,485.840,0
7.274,-1000.000,-1000.000,-594.727,-777.344,0
7.278,440.430,-56.641,-530.762,249.023,0
7.282,-836.914,-954.102,-512.207,-1000.000,0
7.286,-239.258,-245.605,-593.262,-83.496,0
7.289,-1000.000,-1000.000,-566.895,-843.262,0
7.293,-224.121,-726.562,-499.512,817.871,0
7.297,-890.625,850.098,-418.945,-773.926,0
7.301,633.301,595.703,-555.176,-884.766,0
7.305,-985.352,-1000.000,-613.770,865.234,0
7.309,-863.281,-968.262,-580.078,981.934,0
7.313,820.801,663.574,-560.547,-708.984,0
7.317,989.746,983.887,-551.758,-1000.000,0
7.321,-706.055,-697.754,-605.957,627.930,0
7.325,-1000.000,-1000.000,-599.609,-848.145,0
7.329,665.527,482.422,-576.660,-411.621,0
7.332,-946.289,986.328,-539.062,-1000.000,0
7.336,-580.078,-586.914,-576.660,379.395,0
7.340,-1000.000,-1000.000,-563.965,-777.344,0
7.344,324.219,-280.273,-578.613,479.492,0
7.348,-812.988,-987.305,-541.504,-1000.000,0
7.352,-21.973,-88.379,-552.246,-312.012,0
7.356,-1000.000,-1000.000,-450.684,-900.391,0
7.360,-441.406,-820.801,-546.875,900.391,0
7.364,-960.449,763.184,-565.430,-689.453,0
7.368,748.047,765.137,-527.832,-964.844,0
7.372,-909.668,-968.750,-579.590,795.898,0
7.375,-950.195,-994.629,-590.820,999.023,0
7.379,750.977,671.875,-558.105,-716.309,0
7.383,-995.117,994.141,-482.910,-1000.000,0
7.387,-711.914,-652.344,-568.359,610.840,0
7.391,-1000.000,-1000.000,-606.445,-816.895,0
7.395,650.391,362.305,-580.566,-262.207,0
7.399,-905.762,-971.680,-465.332,-1000.000,0
7.403,-472.656,-492.676,-501.953,272.949,0
7.407,-1000.000,-1000.000,-568.359,-789.551,0
7.411,207.031,-501.465,-558.594,633.301,0
7.414,-803.223,960.938,-486.816,-937.012,0
7.418,191.895,142.578,-575.684,-535.156,0
7.422,-1000.000,-1000.000,-577.637,-957.031,0
7.426,-653.320,-901.855,-563.477,921.387,0
7.430,949.707,684.082,-527.832,-682.129,0
7.434,871.094,860.840,-526.367,-1000.000,0
7.438,-806.641,-890.625,-603.027,669.922,0
7.442,-1000.000,-1000.000,-585.449,-925.293,0
7.446,675.293,648.438,-542.480,-633.789,0
7.450,-985.352,986.816,-551.270,-1000.000,0
7.454,-716.309,-644.531,-610.840,603.516,0
7.457,-1000.000,-1000.000,-556.152,-806.152,0
7.461,590.332,185.059,-554.199,-49.316,0
7.465,932.617,860.840,-567.871,-931.152,0
7.469,-432.617,-448.242,-593.262,227.539,0
7.473,-1000.000,-1000.000,-530.273,-831.055,0
7.477,-26.367,-654.785,-536.133,718.750,0
7.481,-829.590,912.598,-541.992,-892.578,0
7.485,410.156,367.188,-582.031,-737.793,0
7.489,-1000.000,-1000.000,-474.609,963.867,0
7.493,-757.812,-939.941,-473.633,953.125,0
7.497,883.301,663.574,-563.965,-696.777,0
7.500,951.172,928.223,-544.922,-1000.000,0
7.504,-732.422,-796.875,-595.215,643.066,0
7.508,-1000.000,-1000.000,-621.582,-881.836,0
7.512,680.176,569.336,-583.984,-524.414,0
7.516,-993.164,982.910,-539.062,-1000.000,0
7.520,-687.500,-618.164,-590.332,492.676,0
7.524,-1000.000,-1000.000,-536.621,-781.250,0
7.528,465.820,-39.062,-555.664,142.578,0
7.532,-838.867,-945.801,-531.250,-1000.000,0
7.536,-240.234,-237.793,-495.117,-67.871,0
7.539,-1000.000,-1000.000,-533.691,-848.145,0
7.543,-224.121,-739.746,-606.445,810.547,0
7.547,-891.602,839.355,-557.129,-796.387,0
7.551,638.184,614.746,-578.125,-837.402,0
7.555,-981.445,-1000.000,-593.262,905.273,0
7.559,-864.258,-970.703,-588.379,971.680,0
7.563,821.289,665.039,-515.625,-705.566,0
7.567,989.258,983.398,-512.207,-1000.000,0
7.571,-706.055,-695.312,-607.422,627.930,0
7.575,-1000.000,-1000.000,-588.867,-847.656,0
7.579,665.527,472.168,-497.070,-411.133,0
7.582,-945.801,991.211,-506.348,-1000.000,0
7.586,-581.543,-582.031,-600.098,382.812,0
7.590,-1000.000,-1000.000,-540.527,-775.879,0
7.594,334.473,-270.996,-493.164,406.738,0
7.598,-812.988,-978.516,-524.902,-1000.000,0
7.602,-21.973,-63.477,-608.887,-300.293,0
7.606,-1000.000,-1000.000,-537.598,-903.809,0
7.610,-441.895,-831.543,-571.777,897.461,0
7.614,-958.496,755.859,-562.500,-708.496,0
7.618,737.793,769.043,-547.363,-924.805,0
7.621,-915.527,-967.773,-552.734,837.402,0
7.625,-957.031,-995.117,-572.266,990.234,0
7.629,738.281,671.875,-567.383,-713.379,0
7.633,-993.652,993.652,-538.086,-1000.000,0
7.637,-712.402,-651.855,-580.566,614.258,0
7.641,-1000.000,-1000.000,-545.898,-821.777,0
7.645,650.391,354.980,-562.988,-294.922,0
7.649,-905.762,-965.332,-554.688,-1000.000,0
7.653,-473.145,-481.445,-570.801,275.879,0
7.657,-1000.000,-1000.000,-532.715,-785.156,0
7.661,205.078,-501.465,-575.195,593.262,0
7.664,-802.246,964.844,-538.574,-968.262,0
7.668,219.238,166.992,-515.625,-526.367,0
7.672,-1000.000,-1000.000,-516.113,-960.938,0
7.676,-657.227,-907.227,-585.449,925.781,0
7.680,950.684,683.105,-565.430,-692.871,0
7.684,875.000,861.328,-459.473,-1000.000,0
7.688,-811.523,-894.043,-512.207,728.027,0
7.692,-1000.000,-1000.000,-617.188,-943.359,0
7.696,677.246,642.090,-575.195,-633.789,0
7.700,814.941,885.742,-545.410,-822.754,0
7.704,-773.926,-666.504,-595.703,671.875,0
7.707,-1000.000,-1000.000,-575.684,-832.031,0
7.711,531.738,154.297,-546.875,-61.523,0
7.715,-860.840,-942.871,-450.684,-1000.000,0
7.719,-356.934,-368.164,-565.918,156.250,0
7.723,-1000.000,-1000.000,-579.590,-801.270,0
7.727,-10.742,-650.879,-565.918,711.426,0
7.731,-834.961,898.926,-560.059,-879.883,0
7.735,412.109,393.555,-586.426,-739.746,0
7.739,-1000.000,-1000.000,-565.430,964.355,0
7.743,-755.859,-942.871,-567.383,953.125,0
7.746,876.465,663.574,-543.457,-696.777,0
7.750,976.074,934.082,-530.762,-1000.000,0
7.754,-699.707,-789.062,-606.934,643.066,0
7.758,-1000.000,-1000.000,-544.922,-881.836,0
7.762,681.641,569.824,-482.422,-524.902,0
7.766,-995.117,980.469,-545.898,-1000.000,0
7.770,-682.617,-613.770,-607.910,488.770,0
7.774,-1000.000,-1000.000,-469.727,-779.297,0
7.778,440.430,-79.590,-540.039,198.730,0
7.782,-836.914,-961.914,-580.078,-1000.000,0
7.786,-239.258,-246.094,-584.961,-76.660,0
7.789,-1000.000,-1000.000,-551.270,-843.750,0
7.793,-224.121,-743.164,-583.008,807.617,0
7.797,-890.137,833.984,-572.266,-797.852,0
7.801,628.906,615.723,-546.875,-836.914,0
7.805,-985.352,-1000.000,-551.270,905.273,0
7.809,-872.559,-970.703,-574.219,971.680,0
7.813,809.570,665.039,-568.359,-706.055,0
7.817,992.188,982.910,-514.160,-1000.000,0
7.821,-706.543,-692.871,-544.922,627.930,0
7.825,-1000.000,-1000.000,-595.215,-847.656,0
7.829,665.527,462.402,-584.473,-411.133,0
7.832,-946.777,988.770,-512.695,-1000.000,0
7.836,-580.078,-581.055,-564.453,382.324,0
7.840,-1000.000,-1000.000,-562.988,-770.508,0
7.844,324.707,-301.270,-558.105,407.227,0
7.848,-812.500,-992.188,-519.531,-1000.000,0
7.852,-21.973,-73.730,-549.805,-201.172,0
7.856,-1000.000,-1000.000,-541.992,-871.582,0
7.860,-441.406,-834.961,-588.867,888.672,0
7.864,-959.473,747.070,-471.191,-690.918,0
7.868,740.723,772.949,-444.336,-929.199,0
7.871,-901.855,-966.309,-604.980,837.402,0
7.875,-986.328,-995.605,-613.770,990.723,0
7.879,702.148,672.852,-544.434,-713.867,0
7.883,-987.305,993.164,-548.828,-1000.000,0
7.887,-713.379,-649.414,-610.840,614.258,0
7.891,-1000.000,-1000.000,-570.801,-821.777,0
7.895,650.391,345.215,-547.363,-294.434,0
7.899,-905.762,-970.703,-531.250,-1000.000,0
7.903,-472.656,-488.770,-602.539,276.367,0
7.907,-1000.000,-1000.000,-535.645,-788.086,0
7.911,207.031,-522.949,-488.281,612.305,0
7.914,-803.223,952.148,-542.969,-953.613,0
7.918,191.895,163.086,-593.750,-530.762,0
7.922,-1000.000,-1000.000,-535.645,-953.613,0
7.926,-645.996,-900.879,-568.848,917.480,0
7.930,944.336,677.734,-552.734,-686.523,0
7.934,785.645,766.113,-548.828,-919.922,0
7.938,-825.195,-919.434,-569.824,731.934,0
7.942,-1000.000,-1000.000,-572.266,-945.801,0
7.946,668.457,638.184,-547.852,-625.000,0
7.950,-985.840,987.305,-524.902,-1000.000,0
7.954,-698.242,-631.348,-508.789,596.680,0
7.957,-1000.000,-1000.000,-420.898,-798.828,0
7.961,547.363,151.855,-562.012,-77.637,0
7.965,-866.211,-947.266,-570.312,-1000.000,0
7.969,-356.934,-367.676,-562.988,156.250,0
7.973,-1000.000,-1000.000,-561.035,-800.781,0
7.977,-12.695,-649.902,-585.938,709.473,0
7.981,-826.660,912.109,-546.387,-891.113,0
7.985,441.895,398.438,-565.430,-729.004,0
7.989,-1000.000,-1000.000,-548.340,965.820,0
7.993,-566.895,-749.023,-550.781,757.324,0
7.996,955.566,740.234,-524.902,-772.461,0
8.000,939.453,900.879,-447.266,-1000.000,0
8.004,-687.012,-773.926,-572.266,627.441,0
8.008,-1000.000,-1000.000,-624.512,-876.465,0
8.012,681.152,571.777,-555.664,-524.902,0
8.016,-993.164,982.422,-546.387,-1000.000,0
8.020,-686.035,-617.676,-614.258,491.699,0
8.024,-1000.000,-1000.000,-572.266,-780.762,0
8.028,458.496,-44.434,-551.270,157.227,0
8.032,-838.379,-946.777,-528.809,-1000.000,0
8.036,-239.746,-237.305,-585.938,-69.824,0
8.039,-1000.000,-1000.000,-538.574,-839.355,0
8.043,-213.867,-736.816,-495.605,806.152,0
8.047,-887.695,833.496,-442.871,-790.527,0
8.051,425.781,416.992,-556.152,-642.578,0
8.055,-1000.000,-1000.000,-577.148,981.445,0
8.059,-859.375,-936.523,-501.953,938.477,0
8.063,770.020,648.438,-540.527,-689.941,0
8.067,-997.559,990.723,-573.730,-1000.000,0
8.071,-707.520,-692.871,-599.121,627.930,0
8.075,-1000.000,-1000.000,-597.656,-847.656,0
8.078,666.016,470.215,-587.891,-411.133,0
8.082,-946.289,991.211,-559.570,-1000.000,0
8.086,-580.078,-578.613,-571.289,380.371,0
8.090,-1000.000,-1000.000,-444.824,-778.809,0
8.094,324.219,-297.852,-544.434,466.797,0
8.098,-812.988,-988.770,-575.195,-1000.000,0
8.102,-21.973,-63.477,-562.012,-342.285,0
8.106,-1000.000,-1000.000,-551.758,-913.086,0
8.110,-438.477,-823.730,-583.008,903.809,0
8.114,-972.656,760.254,-542.480,-683.594,0
8.118,805.664,783.203,-544.434,-996.582,0
8.121,-855.957,-955.078,-582.031,760.742,0
8.125,-962.891,-998.535,-576.172,-993.652,0
8.129,754.883,673.340,-559.082,-718.750,0
8.133,-995.605,993.652,-487.305,-1000.000,0
8.137,-711.914,-651.367,-479.980,605.957,0
8.141,-1000.000,-1000.000,-562.988,-810.547,0
8.145,650.391,351.562,-595.215,-214.844,0
8.149,-905.762,-965.820,-502.930,-1000.000,0
8.153,-473.145,-480.957,-586.914,267.578,0
8.157,-1000.000,-1000.000,-578.613,-793.457,0
8.161,204.590,-511.230,-574.219,649.414,0
8.164,-801.758,961.426,-552.734,-926.270,0
8.168,233.398,182.129,-571.777,-659.668,0
8.172,-1000.000,-1000.000,-552.734,990.234,0
8.176,-658.203,-904.785,-551.270,941.895,0
8.180,946.289,687.500,-489.258,-689.453,0
8.184,895.508,866.699,-520.996,-1000.000,0
8.188,-779.297,-881.836,-619.629,659.180,0
8.192,-1000.000,-1000.000,-589.355,-923.340,0
8.196,677.246,644.531,-461.914,-635.254,0
8.200,-988.281,985.840,-516.113,-1000.000,0
8.203,-707.520,-642.090,-629.883,595.215,0
8.207,-1000.000,-1000.000,-562.500,-798.340,0
8.211,548.828,164.062,-576.172,47.852,0
8.215,942.871,861.328,-560.547,-909.180,0
8.219,-438.965,-454.102,-585.938,221.680,0
8.223,-1000.000,-1000.000,-512.207,-833.008,0
8.227,73.242,-569.824,-529.297,645.996,0
8.231,-795.898,935.059,-546.387,-892.090,0
8.235,394.043,368.652,-565.918,-768.555,0
8.239,-1000.000,-1000.000,-498.047,927.246,0
8.243,-758.301,-943.848,-556.641,964.844,0
8.246,875.977,661.133,-574.707,-700.195,0
8.250,976.562,941.406,-541.504,-1000.000,0
8.254,-699.219,-780.762,-542.480,641.113,0
8.258,-1000.000,-1000.000,-568.359,-877.930,0
8.262,681.641,569.824,-582.520,-516.113,0
8.266,-995.117,980.957,-531.250,-1000.000,0
8.270,-682.617,-614.746,-539.062,482.422,0
8.274,-1000.000,-1000.000,-530.273,-775.391,0
8.278,440.430,-71.777,-573.242,294.434,0
8.282,-836.426,-958.984,-513.184,-1000.000,0
8.286,-239.258,-245.605,-504.883,-90.820,0
8.289,-1000.000,-1000.000,-536.133,-839.844,0
8.293,-223.633,-745.605,-594.238,816.406,0
8.297,-893.555,832.520,-527.344,-770.996,0
8.301,650.391,623.535,-541.992,-896.973,0
8.305,-972.168,-1000.000,-596.191,854.004,0
8.309,-867.188,-971.680,-596.191,984.863,0
8.313,821.777,664.551,-517.090,-709.961,0
8.317,989.258,987.793,-520.508,-1000.000,0
8.321,-706.055,-689.941,-613.281,625.488,0
8.325,-1000.000,-1000.000,-583.008,-842.285,0
8.328,665.527,472.168,-498.535,-395.996,0
8.332,-946.289,991.211,-518.066,-1000.000,0
8.336,-580.078,-577.637,-633.789,375.977,0
8.340,-1000.000,-1000.000,-572.266,-777.344,0
8.344,324.707,-295.410,-498.047,532.227,0
8.348,-812.500,-990.723,-524.414,-987.305,0
8.352,-21.973,-79.102,-623.535,-321.289,0
8.356,-1000.000,-1000.000,-547.363,-896.484,0
8.360,-440.918,-829.590,-529.297,900.391,0
8.364,-963.379,752.930,-546.387,-691.895,0
8.368,760.254,774.414,-572.754,-953.125,0
8.371,-894.531,-963.867,-562.988,808.594,0
8.375,-963.379,-996.582,-561.035,996.582,0
8.379,738.281,672.852,-567.383,-714.844,0
8.383,-993.164,993.652,-553.711,-1000.000,0
8.387,-712.402,-651.367,-582.520,614.258,0
8.391,-1000.000,-1000.000,-522.949,-821.777,0
8.395,650.391,353.516,-552.246,-294.434,0
8.399,-905.762,-968.750,-563.477,-1000.000,0
8.403,-473.145,-487.305,-573.242,275.879,0
8.407,-1000.000,-1000.000,-524.414,-785.156,0
8.411,205.566,-506.836,-558.105,593.262,0
8.414,-802.734,963.867,-544.434,-968.262,0
8.418,216.309,179.688,-502.930,-526.367,0
8.422,-1000.000,-1000.000,-473.145,-960.938,0
8.426,-656.738,-908.691,-584.961,924.316,0
8.430,950.195,683.594,-562.500,-690.430,0
8.434,875.488,862.305,-487.305,-1000.000,0
8.438,-801.270,-887.207,-574.219,707.520,0
8.442,-1000.000,-1000.000,-626.953,-931.641,0
8.446,675.781,644.531,-563.965,-632.812,0
8.450,-988.770,984.863,-460.938,-1000.000,0
8.453,-698.242,-631.836,-580.566,596.680,0
8.457,-1000.000,-1000.000,-598.633,-798.828,0
8.461,547.363,157.227,-546.875,-77.637,0
8.465,-866.211,-946.289,-523.438,-1000.000,0
8.469,-356.934,-368.652,-591.309,156.250,0
8.473,-1000.000,-1000.000,-562.012,-801.758,0
8.477,-10.742,-652.832,-552.246,711.914,0
8.481,-835.449,896.973,-516.113,-879.395,0
8.485,409.668,390.137,-574.707,-739.746,0
8.489,-1000.000,-1000.000,-557.617,964.355,0
8.493,-755.859,-942.383,-552.246,953.125,0
8.496,877.930,663.574,-541.016,-696.777,0
8.500,970.703,933.105,-543.457,-1000.000,0
8.504,-707.520,-788.574,-610.840,642.578,0
8.508,-1000.000,-1000.000,-562.500,-881.348,0
8.512,681.152,561.035,-474.121,-526.855,0
8.516,-995.117,980.957,-536.621,-1000.000,0
8.520,-682.617,-614.258,-614.258,501.953,0
8.524,-1000.000,-1000.000,-482.910,-781.738,0
8.528,440.430,-76.172,-548.340,166.016,0
8.532,-836.914,-960.449,-581.543,-1000.000,0
8.535,-239.258,-246.094,-585.449,-71.777,0
8.539,-1000.000,-1000.000,-543.945,-845.703,0
8.543,-224.121,-744.141,-579.102,807.129,0
8.547,-889.160,833.008,-569.824,-799.316,0
8.551,622.559,611.816,-564.453,-836.426,0
8.555,-987.793,-1000.000,-552.246,905.273,0
8.559,-880.371,-970.215,-596.680,972.168,0
8.563,799.805,665.039,-581.055,-706.055,0
8.567,994.141,981.445,-517.090,-1000.000,0
8.571,-707.031,-694.824,-578.125,627.930,0
8.575,-1000.000,-1000.000,-600.586,-847.656,0
8.578,670.898,463.379,-573.242,-411.133,0
8.582,-952.637,985.840,-526.855,-1000.000,0
8.586,-578.125,-585.449,-590.332,383.301,0
8.590,-1000.000,-1000.000,-562.012,-775.391,0
8.594,358.398,-301.270,-558.105,399.902,0
8.598,-829.102,-995.117,-524.902,-1000.000,0
8.602,-13.672,-86.914,-551.270,-299.316,0
8.606,-1000.000,-1000.000,-553.711,-904.297,0
8.610,-442.383,-830.566,-584.473,895.996,0
8.614,-956.055,750.977,-497.070,-710.449,0
8.618,725.586,770.020,-529.785,-924.805,0
8.621,-915.527,-967.285,-606.445,836.914,0
8.625,-984.375,-995.605,-592.773,990.234,0
8.629,699.219,672.363,-491.211,-713.867,0
8.633,-987.305,993.164,-500.977,-1000.000,0
8.637,-713.379,-649.414,-605.957,614.258,0
8.641,-1000.000,-1000.000,-548.340,-821.777,0
8.645,650.391,348.145,-491.699,-294.434,0
8.649,-905.762,-976.074,-514.648,-1000.000,0
8.653,-472.656,-498.535,-601.074,275.879,0
8.657,-1000.000,-1000.000,-525.879,-785.645,0
8.660,207.031,-516.113,-496.582,595.703,0
8.664,-803.223,955.078,-545.410,-966.309,0
8.668,191.895,159.668,-600.586,-526.855,0
8.672,-1000.000,-1000.000,-518.555,-960.449,0
8.676,-652.832,-900.391,-565.918,923.828,0
8.680,948.242,688.477,-575.195,-688.965,0
8.684,876.465,862.305,-542.480,-1000.000,0
8.688,-800.781,-886.719,-576.660,700.684,0
8.692,-1000.000,-1000.000,-595.703,-930.176,0
8.696,675.781,644.531,-557.129,-632.812,0
8.700,-988.770,985.352,-540.039,-1000.000,0
8.703,-698.242,-631.836,-529.785,596.680,0
8.707,-1000.000,-1000.000,-401.855,-798.828,0
8.711,547.363,160.645,-548.828,-77.637,0
8.715,-866.211,-950.195,-594.727,-1000.000,0
8.719,-356.934,-377.930,-590.332,155.273,0
8.723,-1000.000,-1000.000,-563.477,-797.363,0
8.727,-10.742,-645.020,-589.355,691.406,0
8.731,-830.078,909.180,-557.129,-903.320,0
8.735,403.809,386.230,-570.312,-729.004,0
8.739,-1000.000,-1000.000,-545.410,960.938,0
8.743,-657.227,-843.750,-562.012,854.004,0
8.746,914.062,698.242,-542.480,-730.957,0
8.750,946.777,915.039,-466.309,-1000.000,0
8.754,-708.984,-784.668,-569.824,634.766,0
8.758,-1000.000,-1000.000,-612.793,-879.395,0
8.762,681.152,568.848,-557.129,-524.414,0
8.766,-995.117,981.445,-536.133,-1000.000,0
8.770,-682.617,-615.723,-609.375,492.676,0
8.774,-1000.000,-1000.000,-560.547,-781.250,0
8.778,440.430,-62.012,-541.504,142.578,0
8.782,-836.914,-954.590,-530.762,-1000.000,0
8.785,-239.746,-243.164,-595.703,-68.359,0
8.789,-1000.000,-1000.000,-542.969,-846.191,0
8.793,-224.121,-737.793,-504.395,801.270,0
8.797,-889.160,839.355,-458.496,-806.152,0
8.801,623.535,604.980,-560.059,-834.961,0
8.805,-991.211,-1000.000,-577.637,905.273,0
8.809,-866.699,-969.238,-561.523,971.680,0
8.813,813.965,664.062,-544.434,-706.055,0
8.817,991.211,983.398,-543.945,-1000.000,0
8.821,-706.055,-696.289,-600.098,627.930,0
8.825,-1000.000,-1000.000,-531.250,-847.656,0
8.828,665.527,477.051,-554.688,-411.133,0
8.832,-946.289,986.816,-571.777,-1000.000,0
8.836,-580.078,-584.473,-564.453,383.789,0
8.840,-1000.000,-1000.000,-420.410,-775.391,0
8.844,324.707,-293.457,-536.621,382.812,0
8.848,-812.988,-990.723,-590.820,-1000.000,0
8.852,-21.973,-80.566,-568.848,-296.875,0
8.856,-1000.000,-1000.000,-526.367,-904.785,0
8.860,-440.430,-823.242,-571.777,892.090,0
8.864,-964.355,759.766,-576.172,-718.262,0
8.868,765.137,772.949,-550.293,-928.223,0
8.871,-893.555,-963.867,-557.129,823.730,0
8.875,-954.102,-996.094,-583.496,893.066,0
8.879,751.953,672.852,-555.664,-748.047,0
8.883,-995.605,993.164,-495.117,-1000.000,0
8.887,-711.914,-649.902,-572.754,606.445,0
8.891,-1000.000,-1000.000,-593.262,-818.848,0
8.895,650.391,347.656,-578.613,-294.434,0
8.899,-905.762,-973.633,-483.887,-1000.000,0
8.903,-473.145,-496.094,-563.477,275.391,0
8.907,-1000.000,-1000.000,-564.453,-783.691,0
8.910,207.031,-500.977,-563.965,584.961,0
8.914,-803.223,962.891,-497.070,-974.609,0
8.918,191.895,155.273,-560.547,-524.414,0
8.922,-1000.000,-1000.000,-569.824,-961.426,0
8.926,-655.762,-903.320,-557.617,927.246,0
8.930,958.496,686.035,-482.422,-697.266,0
8.934,835.449,857.422,-517.090,-988.770,0
8.938,-845.703,-891.602,-599.609,738.770,0
8.942,-1000.000,-1000.000,-583.496,-936.523,0
8.946,673.828,642.090,-477.539,-631.836,0
8.950,-988.770,985.840,-513.672,-1000.000,0
8.953,-698.242,-632.324,-637.695,596.680,0
8.957,-1000.000,-1000.000,-553.223,-798.828,0
8.961,547.363,162.598,-571.289,-77.148,0
8.965,-866.211,-947.266,-551.270,-1000.000,0
8.969,-356.934,-373.047,-583.984,154.297,0
8.973,-1000.000,-1000.000,-513.184,-789.062,0
8.977,-4.395,-637.207,-532.227,669.922,0
8.981,-836.914,909.180,-555.176,-910.156,0
8.985,310.547,376.465,-573.730,-631.836,0
8.989,-1000.000,-1000.000,-451.172,996.094,0
8.992,-743.164,-941.895,-497.070,937.012,0
8.996,879.395,664.551,-585.449,-688.965,0
9.000,940.430,926.758,-551.758,-1000.000,0
9.004,-750.488,-797.852,-601.562,642.578,0
9.008,-1000.000,-1000.000,-611.328,-881.348,0
9.012,689.941,569.336,-581.543,-526.367,0
9.016,994.141,979.980,-537.598,-1000.000,0
9.020,-684.082,-617.676,-596.191,500.488,0
9.024,-930.664,-1000.000,-535.156,-782.227,0
9.028,516.113,-33.203,-541.992,142.578,0
9.032,-870.605,-963.379,-530.273,-1000.000,0
9.035,-223.633,-248.535,-502.930,-68.848,0
9.039,-1000.000,-1000.000,-518.066,-845.215,0
9.043,-224.121,-735.840,-597.656,796.387,0
9.047,-889.648,840.332,-554.688,-811.523,0
9.051,624.023,593.262,-563.965,-833.984,0
9.055,-992.188,-1000.000,-570.801,904.785,0
9.059,-861.328,-967.773,-568.848,971.680,0
9.063,820.312,664.062,-516.113,-705.566,0
9.067,989.746,981.445,-515.137,-1000.000,0
9.071,-706.055,-698.242,-584.473,627.441,0
9.075,-1000.000,-1000.000,-569.336,-847.168,0
9.078,666.016,474.609,-496.094,-413.086,0
9.082,-946.289,982.422,-440.918,-1000.000,0
9.086,-579.590,-591.797,-593.750,394.531,0
9.090,-1000.000,-1000.000,-553.223,-770.508,0
9.094,330.566,-283.691,-560.059,350.098,0
9.098,-814.453,-992.188,-569.824,-1000.000,0
9.102,-121.582,-126.953,-585.449,-194.336,0
9.106,-1000.000,-1000.000,-515.625,-867.188,0
9.110,-423.828,-807.129,-560.059,856.934,0
9.114,-975.586,767.578,-561.523,-724.609,0
9.117,784.180,774.414,-550.293,-949.219,0
9.121,-878.418,-961.426,-553.223,807.617,0
9.125,-957.520,-996.582,-491.699,996.094,0
9.129,752.930,672.852,-539.062,-714.844,0
9.133,-995.605,993.164,-567.871,-1000.000,0
9.137,-711.914,-650.391,-599.121,614.258,0
9.141,-1000.000,-1000.000,-570.312,-821.777,0
9.145,650.391,354.980,-568.848,-294.922,0
9.149,-905.762,-981.934,-555.664,-1000.000,0
9.153,-472.656,-509.766,-573.242,277.832,0
9.157,-1000.000,-1000.000,-514.648,-782.227,0
9.160,207.031,-502.930,-560.059,575.195,0
9.164,-803.223,957.031,-542.969,-981.934,0
9.168,191.895,125.977,-518.555,-522.461,0
9.172,-1000.000,-1000.000,-511.230,-962.402,0
9.176,-655.273,-898.438,-587.891,926.758,0
9.180,956.055,684.570,-559.570,-696.289,0
9.184,843.750,859.375,-484.375,-992.188,0
9.188,-836.426,-893.555,-563.965,733.887,0
9.192,-1000.000,-1000.000,-616.699,-936.035,0
9.196,674.316,653.320,-572.266,-631.836,0
9.200,-988.770,987.793,-444.336,-1000.000,0
9.203,-698.242,-636.719,-479.492,602.539,0
9.207,-1000.000,-1000.000,-561.035,-800.781,0
9.211,547.363,231.445,-559.082,-177.246,0
9.215,-866.211,-937.988,-493.164,-1000.000,0
9.219,-356.934,-405.273,-572.754,172.363,0
9.223,-1000.000,-1000.000,-544.434,-808.105,0
9.227,-10.742,-637.207,-544.922,708.984,0
9.231,-835.449,907.227,-545.898,-884.277,0
9.235,410.156,363.281,-594.238,-738.281,0
9.239,-1000.000,-1000.000,-564.453,963.867,0
9.242,-758.301,-939.453,-576.172,953.125,0
9.246,893.555,672.363,-554.199,-706.543,0
9.250,939.453,919.922,-555.664,-1000.000,0
9.254,-736.328,-800.781,-619.629,644.043,0
9.258,-848.633,-898.926,-559.570,921.875,0
9.262,756.348,660.645,-530.273,-600.586,0
9.266,970.703,947.266,-565.918,-1000.000,0
9.270,-666.992,-601.074,-610.840,474.121,0
9.274,-1000.000,-1000.000,-483.398,-774.414,0
9.278,440.430,-41.992,-537.598,186.035,0
9.282,-836.914,-957.031,-549.316,-1000.000,0
9.285,-239.258,-262.695,-579.590,-74.707,0
9.289,-1000.000,-1000.000,-465.332,-844.238,0
9.293,-224.121,-726.074,-456.055,807.617,0
9.297,-889.160,848.145,-568.359,-798.340,0
9.301,623.535,568.359,-579.590,-836.914,0
9.305,-992.188,-1000.000,-542.480,905.273,0
9.309,-861.328,-963.867,-597.168,971.680,0
9.313,820.312,662.109,-592.285,-706.055,0
9.317,989.746,982.910,-522.461,-1000.000,0
9.321,-706.055,-702.148,-576.172,627.441,0
9.325,-1000.000,-1000.000,-608.887,-848.145,0
9.328,670.898,490.723,-582.031,-411.133,0
9.332,-952.637,984.375,-543.457,-1000.000,0
9.336,-578.125,-592.285,-584.473,383.301,0
9.340,-1000.000,-1000.000,-532.227,-775.391,0
9.344,358.398,-258.301,-547.363,395.996,0
9.348,-829.102,-984.375,-524.414,-1000.000,0
9.352,-13.672,-109.863,-558.594,-297.852,0
9.356,-1000.000,-1000.000,-539.062,-907.227,0
9.360,-442.383,-817.871,-579.102,904.785,0
9.364,-956.543,764.648,-477.539,-699.707,0
9.367,729.492,742.188,-459.473,-926.270,0
9.371,-926.758,-981.445,-594.238,837.402,0
9.375,-945.801,-990.234,-605.957,990.723,0
9.379,749.512,669.922,-482.910,-713.867,0
9.383,-995.117,995.605,-507.812,-1000.000,0
9.387,-711.914,-653.320,-633.301,614.258,0
9.391,-1000.000,-1000.000,-583.008,-821.777,0
9.395,650.391,372.070,-552.734,-294.434,0
9.399,-905.762,-978.516,-532.227,-1000.000,0
9.403,-472.656,-507.812,-590.332,275.879,0
9.407,-1000.000,-1000.000,-524.902,-787.109,0
9.410,207.031,-474.121,-551.758,603.027,0
9.414,-803.223,967.773,-564.453,-960.449,0
9.418,191.895,113.281,-599.121,-528.809,0
9.422,-1000.000,-1000.000,-520.996,-955.078,0
9.426,-649.902,-890.625,-482.910,919.922,0
9.430,958.008,687.012,-546.875,-693.848,0
9.434,729.004,744.629,-575.195,-895.020,0
9.438,-886.719,-940.430,-582.520,764.648,0
9.442,-1000.000,-1000.000,-594.727,-951.172,0
9.446,664.551,644.043,-548.340,-624.512,0
9.449,-982.910,989.746,-531.738,-1000.000,0
9.453,-707.031,-636.719,-555.664,596.680,0
9.457,-1000.000,-1000.000,-537.109,-798.828,0
9.461,590.820,205.566,-592.285,-77.637,0
9.465,-871.582,-947.754,-561.035,-1000.000,0
9.469,-356.934,-392.090,-544.922,155.762,0
9.473,-1000.000,-1000.000,-521.973,-798.828,0
9.477,-10.742,-618.652,-589.844,698.730,0
9.481,-835.449,916.504,-544.434,-891.113,0
9.485,410.156,337.891,-505.859,-736.816,0
9.489,-1000.000,-1000.000,-524.414,963.867,0
9.492,-761.719,-937.500,-581.543,953.125,0
9.496,894.043,664.062,-529.297,-696.777,0
9.500,913.086,916.504,-451.172,-1000.000,0
9.504,-782.227,-814.453,-584.961,643.066,0
9.508,-1000.000,-1000.000,-644.531,-881.836,0
9.512,679.688,585.938,-531.738,-524.414,0
9.516,-996.094,981.445,-415.039,-1000.000,0
9.520,-682.617,-617.676,-565.430,492.676,0
9.524,-1000.000,-1000.000,-586.914,-781.250,0
9.528,440.430,-31.738,-554.199,142.578,0
9.532,-836.914,-958.008,-535.645,-1000.000,0
9.535,-239.258,-272.461,-593.262,-67.871,0
9.539,-1000.000,-1000.000,-547.852,-847.656,0
9.543,-224.121,-721.680,-506.836,808.105,0
9.547,-889.160,851.074,-453.125,-798.828,0
9.551,624.023,556.641,-576.172,-836.914,0
9.555,-992.188,-1000.000,-593.750,905.273,0
9.559,-861.328,-962.402,-562.500,971.680,0
9.563,820.312,662.109,-564.453,-706.055,0
9.567,989.746,980.469,-554.688,-1000.000,0
9.571,-705.566,-708.496,-611.328,627.930,0
9.574,-1000.000,-1000.000,-573.730,-847.656,0
9.578,667.969,502.441,-565.918,-410.645,0
9.582,-953.125,979.004,-563.965,-1000.000,0
9.586,-590.820,-600.586,-575.195,384.766,0
9.590,-1000.000,-1000.000,-434.570,-774.902,0
9.594,324.219,-250.977,-536.133,356.445,0
9.598,-812.988,-986.816,-576.660,-1000.000,0
9.602,-21.973,-129.395,-564.941,-295.898,0
9.606,-1000.000,-1000.000,-534.668,-895.508,0
9.610,-442.383,-805.664,-576.172,854.492,0
9.614,-956.543,775.391,-570.312,-766.113,0
9.617,729.004,739.258,-550.781,-915.527,0
9.621,-926.758,-981.445,-565.918,841.309,0
9.625,-945.801,-989.746,-570.801,983.398,0
9.629,749.512,669.922,-566.406,-711.914,0
9.633,-995.605,995.605,-504.883,-920.410,0
9.637,-711.914,-652.832,-498.535,647.461,0
9.641,-1000.000,-1000.000,-562.988,-835.449,0
9.645,652.832,375.488,-592.285,-291.504,0
9.649,-912.109,-987.305,-482.422,-1000.000,0
9.653,-485.352,-524.414,-573.242,303.223,0
9.657,-1000.000,-1000.000,-572.266,-780.762,0
9.660,207.031,-466.797,-569.336,561.523,0
9.664,-803.711,969.238,-561.035,-990.723,0
9.668,191.895,102.539,-589.844,-519.531,0
9.672,-1000.000,-1000.000,-546.387,-963.379,0
9.676,-656.250,-889.648,-558.105,927.734,0
9.680,959.961,696.289,-544.434,-698.242,0
9.684,828.613,839.355,-549.805,-985.840,0
9.688,-852.539,-910.645,-600.098,742.188,0
9.692,-1000.000,-1000.000,-579.102,-937.012,0
9.696,673.340,656.738,-470.703,-631.836,0
9.699,-986.816,986.328,-520.508,-1000.000,0
9.703,-708.008,-641.113,-618.652,601.074,0
9.707,-1000.000,-1000.000,-533.203,-803.711,0
9.711,569.336,205.078,-556.152,-78.125,0
9.715,-968.262,948.242,-559.570,-1000.000,0
9.719,-407.715,-453.613,-582.031,211.426,0
9.723,-1000.000,-1000.000,-492.188,-808.105,0
9.727,81.543,-523.438,-508.301,563.965,0
9.731,-798.828,953.125,-554.199,-965.820,0
9.735,394.043,307.617,-580.566,-710.938,0
9.739,-1000.000,-1000.000,-472.168,952.637,0
9.742,-764.648,-937.988,-555.176,956.055,0
9.746,894.043,663.086,-604.492,-696.777,0
9.750,913.574,916.992,-528.809,-1000.000,0
9.754,-782.227,-817.383,-536.133,642.578,0
9.758,-1000.000,-1000.000,-579.590,-878.906,0
9.762,678.711,595.703,-581.543,-539.551,0
9.766,-993.164,981.934,-535.645,-1000.000,0
9.770,-689.941,-619.629,-505.859,549.805,0
9.774,-1000.000,-1000.000,-488.770,-787.109,0
9.778,476.074,-3.418,-583.496,140.625,0
9.782,-839.844,-955.566,-555.176,-1000.000,0
9.785,-240.234,-286.133,-493.652,-54.199,0
9.789,-1000.000,-1000.000,-507.324,-830.566,0
9.793,-224.121,-718.262,-604.004,749.512,0
9.797,-889.160,852.539,-561.035,-858.398,0
9.801,624.023,537.109,-579.102,-824.219,0
9.805,-992.188,-1000.000,-563.477,902.344,0
9.809,-861.328,-959.473,-573.730,971.191,0
9.813,820.312,662.109,-547.363,-706.055,0
9.817,989.746,975.098,-540.039,-1000.000,0
9.821,-705.078,-715.332,-607.422,626.465,0
9.824,-1000.000,-1000.000,-578.613,-843.262,0
9.828,673.828,501.953,-547.363,-421.387,0
9.832,-971.191,978.516,-553.711,-1000.000,0
9.836,-624.512,-604.492,-623.047,438.965,0
9.840,-1000.000,-1000.000,-542.969,-778.809,0
9.844,342.773,-226.562,-480.469,355.469,0
9.848,-814.453,-982.422,-516.113,-1000.000,0
9.852,-22.461,-147.949,-615.723,-296.875,0
9.856,-1000.000,-1000.000,-525.879,-892.090,0
9.860,-442.383,-799.805,-498.047,842.773,0
9.864,-956.543,780.762,-551.758,-781.738,0
9.867,729.004,719.238,-575.684,-912.598,0
9.871,-926.758,-992.188,-539.062,835.449,0
9.875,-945.801,-986.328,-494.629,989.258,0
9.879,749.512,668.457,-556.641,-713.867,0
9.883,-995.605,995.605,-582.031,-1000.000,0
9.887,-710.938,-656.738,-598.145,613.281,0
9.891,-1000.000,-1000.000,-582.031,-818.359,0
9.895,657.227,391.113,-581.055,-302.734,0
9.899,-923.828,-992.676,-562.012,-1000.000,0
9.903,-512.207,-535.156,-567.383,317.871,0
9.906,-1000.000,-1000.000,-514.648,-781.738,0
9.910,223.145,-450.684,-574.219,561.035,0
9.914,-804.199,970.215,-553.711,-989.746,0
9.918,190.918,67.871,-515.137,-519.531,0
9.922,-1000.000,-1000.000,-434.082,-963.379,0
9.926,-656.250,-881.836,-554.199,927.734,0
9.930,959.961,701.172,-582.520,-697.754,0
9.934,828.613,831.543,-494.141,-987.793,0
9.938,-852.539,-919.434,-571.777,748.047,0
9.942,-1000.000,-1000.000,-629.883,-954.590,0
9.946,672.363,663.574,-573.242,-659.668,0
9.949,-984.375,986.816,-548.828,-1000.000,0
9.953,-708.984,-638.184,-610.840,595.215,0
9.957,-1000.000,-1000.000,-575.195,-796.387,0
9.961,609.863,230.957,-550.293,-83.984,0
9.965,-886.230,-958.984,-476.562,-1000.000,0
9.969,-393.555,-426.758,-576.172,192.383,0
9.973,-1000.000,-1000.000,-554.199,-789.551,0
9.977,17.090,-602.539,-547.363,654.297,0
9.981,-831.055,920.898,-552.246,-927.734,0
9.985,406.738,293.945,-575.195,-727.539,0
9.989,-1000.000,-1000.000,-536.621,960.938,0
9.992,-762.207,-931.641,-570.312,953.613,0
9.996,894.043,662.598,-561.523,-696.777,0
10.000,913.574,910.645,-539.551,-1000.000,0
10.004,-782.227,-826.660,-609.863,644.531,0
10.008,-1000.000,-1000.000,-554.199,-883.789,0
10.012,678.223,602.539,-531.250,-560.059,0
10.016,-992.188,981.934,-564.941,-1000.000,0
10.020,-691.406,-620.605,-607.422,580.078,0
10.024,-1000.000,-1000.000,-471.680,-786.621,0
10.028,497.559,15.625,-464.355,133.301,0
10.031,-854.980,-959.961,-565.918,-1000.000,0
10.035,-282.227,-310.059,-605.469,20.508,0
10.039,-1000.000,-1000.000,-520.020,-814.941,0
10.043,-221.680,-702.637,-557.617,740.723,0
10.047,-891.602,862.793,-576.660,-853.027,0
10.051,624.023,512.695,-569.824,-825.684,0
10.055,-992.188,-1000.000,-454.590,902.344,0
10.059,-861.328,-957.031,-537.598,971.191,0
10.063,820.312,662.109,-589.355,-705.566,0
10.067,989.746,968.262,-521.973,-1000.000,0
10.071,-704.102,-728.516,-593.262,627.930,0
10.074,-1000.000,-1000.000,-601.074,-845.215,0
10.078,683.594,517.090,-586.914,-441.406,0
10.082,999.512,978.516,-534.668,-1000.000,0
10.086,-673.828,-610.352,-574.219,478.027,0
10.090,-1000.000,-1000.000,-538.574,-779.297,0
10.094,357.910,-209.473,-544.434,350.098,0
10.098,-844.727,918.945,-527.832,-1000.000,0
10.102,-75.684,-214.355,-560.059,-241.699,0
10.106,-1000.000,-1000.000,-524.414,-876.465,0
10.110,-438.477,-797.363,-577.637,834.961,0
10.114,-959.473,790.039,-509.277,-777.344,0
10.117,729.980,700.195,-488.281,-914.062,0
10.121,-926.758,-1000.000,-579.590,835.449,0
10.125,-945.801,-983.398,-592.285,989.258,0
10.129,749.512,667.969,-559.570,-713.379,0
10.133,-995.605,992.676,-555.176,-1000.000,0
10.137,-709.961,-666.504,-617.188,614.746,0
10.141,-1000.000,-1000.000,-568.359,-820.312,0
10.145,667.969,413.086,-564.453,-330.566,0
10.149,-952.637,-997.559,-543.945,-1000.000,0
10.153,-564.941,-543.945,-586.426,372.559,0
10.156,-1000.000,-1000.000,-517.090,-780.273,0
10.160,226.074,-436.523,-466.309,553.711,0
10.164,-813.965,967.285,-535.156,-984.863,0
10.168,102.539,5.371,-612.305,-443.848,0
10.172,-1000.000,-1000.000,-516.602,-937.012,0
10.176,-643.555,-870.605,-572.266,916.016,0
10.180,953.125,704.102,-579.590,-690.918,0
10.184,830.566,817.383,-548.340,-992.676,0
10.188,-852.539,-934.570,-558.105,755.859,0
10.192,-1000.000,-1000.000,-583.008,-978.027,0
10.196,671.875,673.340,-568.359,-695.801,0
10.199,-981.934,988.281,-546.387,-1000.000,0
10.203,-719.238,-646.484,-546.387,600.098,0
10.207,-1000.000,-1000.000,-507.324,-800.781,0
10.211,650.879,263.184,-597.168,-102.539,0
10.215,983.398,941.895,-573.730,-1000.000,0
10.219,-489.746,-473.633,-560.059,285.156,0
10.223,-1000.000,-1000.000,-528.320,-804.199,0
10.227,13.184,-602.051,-592.773,658.203,0
10.231,-832.031,924.805,-575.195,-933.594,0
10.235,379.395,246.582,-580.078,-696.289,0
10.239,-1000.000,-1000.000,-523.438,969.727,0
10.242,-757.812,-925.781,-557.129,849.609,0
10.246,892.090,662.598,-544.922,-727.539,0
10.250,914.062,895.508,-464.844,-1000.000,0
10.254,-782.227,-847.168,-577.148,643.555,0
10.258,-1000.000,-1000.000,-622.559,-900.391,0
10.262,682.129,618.652,-547.363,-597.168,0
10.266,-994.629,982.422,-546.875,-1000.000,0
10.270,-696.289,-623.535,-621.582,579.590,0
10.274,-986.816,-1000.000,-554.199,-783.203,0
10.278,583.008,50.781,-535.645,125.977,0
10.281,-894.043,-954.590,-524.902,-1000.000,0
10.285,-333.008,-322.266,-590.332,90.332,0
10.289,-1000.000,-1000.000,-521.973,-800.293,0
10.293,-215.820,-696.289,-505.371,732.910,0
10.297,-893.555,865.723,-474.121,-852.539,0
10.301,570.312,449.219,-573.730,-800.293,0
10.305,-1000.000,-1000.000,-559.082,922.852,0
10.309,-852.051,-947.266,-544.434,965.332,0
10.313,815.918,659.180,-570.801,-703.125,0
10.317,991.211,961.914,-566.406,-1000.000,0
10.321,-704.102,-744.141,-610.352,631.348,0
10.324,-1000.000,-1000.000,-593.262,-854.004,0
10.328,681.641,537.598,-577.148,-459.961,0
10.332,-995.117,979.004,-559.570,-1000.000,0
10.336,-681.641,-608.398,-573.242,474.609,0
10.340,-1000.000,-1000.000,-447.266,-776.855,0
10.344,435.059,-171.875,-525.879,346.191,0
10.348,-843.750,-977.051,-580.566,-1000.000,0
10.352,-222.168,-200.195,-561.035,-191.406,0
10.356,-1000.000,-1000.000,-461.426,-862.793,0
10.360,-373.535,-774.414,-558.105,827.637,0
10.363,-954.590,802.734,-579.102,-773.926,0
10.367,725.586,675.781,-547.363,-915.039,0
10.371,-928.223,-1000.000,-538.086,840.820,0
10.375,-940.918,-979.980,-575.684,982.910,0
10.379,752.930,671.875,-581.543,-716.797,0
10.383,898.926,984.863,-520.508,-914.062,0
10.387,-741.699,-671.387,-572.754,644.043,0
10.391,-928.223,-1000.000,-579.590,-929.688,0
10.395,691.406,463.379,-554.688,-337.891,0
10.399,-960.449,984.863,-475.098,-1000.000,0
10.403,-571.289,-545.410,-547.852,363.281,0
10.406,-1000.000,-1000.000,-567.871,-778.320,0
10.410,317.383,-386.230,-569.824,555.664,0
10.414,-818.848,984.863,-508.789,-985.840,0
10.418,0.488,-16.113,-579.102,-474.121,0
10.422,-1000.000,-1000.000,-554.688,-947.266,0
10.426,-600.586,-859.375,-550.781,920.898,0
10.430,959.473,718.262,-533.691,-693.848,0
10.434,827.148,805.664,-541.016,-989.258,0
10.438,-850.098,-943.359,-595.215,748.535,0
10.442,-1000.000,-1000.000,-577.637,-956.055,0
10.446,671.875,675.781,-457.520,-661.133,0
10.449,-981.934,989.746,-490.723,-1000.000,0
10.453,-713.867,-645.020,-629.395,594.727,0
10.457,-1000.000,-1000.000,-558.105,-793.457,0
10.461,650.391,300.781,-565.430,-89.355,0
10.465,-906.738,-960.938,-553.711,-1000.000,0
10.469,-472.168,-458.496,-590.820,226.074,0
10.473,-1000.000,-1000.000,-515.625,-788.574,0
10.477,187.500,-565.430,-527.832,652.344,0
10.481,-803.711,935.547,-561.523,-926.270,0
10.485,300.781,218.750,-602.539,-727.539,0
10.488,-1000.000,-1000.000,-469.727,960.938,0
10.492,-744.629,-919.922,-534.180,953.613,0
10.496,897.949,675.293,-602.051,-705.566,0
10.500,907.227,875.000,-556.641,-1000.000,0
10.504,-779.785,-863.770,-599.121,650.879,0
10.508,-937.500,-954.590,-595.703,906.738,0
10.512,710.938,664.551,-562.500,-661.133,0
10.516,995.117,967.773,-541.016,-978.516,0
10.520,-690.430,-619.141,-552.734,564.453,0
10.524,-1000.000,-1000.000,-509.277,-781.250,0
10.528,547.852,95.703,-572.266,131.348,0
10.531,-869.141,-949.707,-543.457,-1000.000,0
10.535,-353.516,-339.355,-520.508,34.180,0
10.539,-1000.000,-1000.000,-537.109,-812.012,0
10.543,-62.500,-678.711,-589.844,739.258,0
10.547,-850.586,879.883,-540.039,-857.422,0
10.551,545.898,439.941,-568.848,-819.824,0
10.555,-1000.000,-1000.000,-559.082,900.879,0
10.559,-851.074,-947.754,-570.801,872.070,0
10.563,818.848,663.574,-528.320,-739.258,0
10.567,990.234,944.824,-516.113,-1000.000,0
10.571,-704.102,-767.090,-608.887,621.582,0
10.574,-1000.000,-1000.000,-612.793,-847.168,0
10.578,681.641,542.969,-521.484,-452.148,0
10.582,-994.629,979.980,-460.449,-1000.000,0
10.586,-682.617,-610.352,-605.469,478.027,0
10.590,-1000.000,-1000.000,-551.758,-778.320,0
10.594,441.406,-142.578,-539.551,348.145,0
10.598,-845.703,-970.215,-566.895,-1000.000,0
10.602,-229.004,-211.914,-608.398,-215.820,0
10.606,-1000.000,-1000.000,-536.133,-869.629,0
10.610,-389.648,-769.531,-570.312,832.031,0
10.613,-941.406,814.453,-559.570,-783.691,0
10.617,638.672,628.418,-543.945,-894.043,0
10.621,-985.840,-1000.000,-546.875,846.680,0
10.625,-828.613,-873.047,-565.918,886.230,0
10.629,777.344,698.730,-567.383,-746.094,0
10.633,989.746,971.680,-558.594,-1000.000,0
10.637,-701.660,-674.316,-591.309,608.887,0
10.641,-1000.000,-1000.000,-573.730,-821.289,0
10.645,665.527,446.289,-569.824,-342.285,0
10.649,-946.289,993.652,-558.594,-1000.000,0
10.653,-580.078,-567.383,-577.637,372.559,0
10.656,-1000.000,-1000.000,-381.836,-776.367,0
10.660,324.707,-359.375,-505.859,548.340,0
10.664,-816.895,987.793,-587.891,-982.422,0
10.668,-18.066,-51.270,-536.621,-358.887,0
10.672,-1000.000,-1000.000,-514.160,-907.715,0
10.676,-528.320,-846.191,-603.516,902.344,0
10.680,995.117,733.398,-579.590,-684.082,0
10.684,790.039,785.645,-520.020,-996.582,0
10.688,-868.164,-958.496,-571.777,760.742,0
10.692,-1000.000,-998.535,-612.305,-993.164,0
10.696,669.922,673.828,-566.895,-718.750,0
10.699,-981.934,992.188,-492.188,-1000.000,0
10.703,-713.867,-648.438,-596.191,604.004,0
10.707,-1000.000,-1000.000,-588.379,-807.617,0
10.711,650.391,333.496,-545.410,-196.289,0
10.715,-905.762,-964.844,-480.957,-1000.000,0
10.719,-472.656,-476.074,-569.824,265.137,0
10.723,-1000.000,-1000.000,-553.711,-789.062,0
10.727,207.031,-550.781,-550.293,645.996,0
10.731,-803.711,940.918,-556.152,-927.246,0
10.735,190.918,194.824,-588.867,-586.426,0
10.738,-1000.000,-1000.000,-521.484,-977.539,0
10.742,-692.383,-913.086,-543.457,929.199,0
10.746,916.504,676.270,-553.711,-685.547,0
10.750,890.137,870.605,-547.852,-1000.000,0
10.754,-798.828,-876.465,-604.980,668.457,0
10.758,-1000.000,-1000.000,-566.406,-924.805,0
10.762,676.270,631.836,-531.738,-634.277,0
10.766,-989.258,985.840,-557.617,-1000.000,0
