timestamps,TP9,AF7,AF8,TP10,Marker0
0.010,583.008,362.793,-464.355,-395.996,0
0.014,-956.543,-974.121,-1000.000,-1000.000,0
0.018,-542.969,-497.070,-494.141,377.930,0
0.022,-1000.000,-1000.000,313.477,-783.691,0
0.026,24.414,-502.930,-71.777,524.414,0
0.030,-866.211,954.102,-932.129,-998.535,0
0.034,13.184,141.602,-719.238,-450.195,0
0.037,-1000.000,-1000.000,167.480,-943.359,0
0.041,-754.395,-897.461,185.547,917.969,0
0.045,858.398,688.965,-748.535,-691.406,0
0.049,784.180,857.422,-926.758,-994.141,0
0.053,-932.129,-888.672,-56.641,760.742,0
0.057,-1000.000,-1000.000,328.613,-993.164,0
0.061,680.176,645.508,-577.148,-725.586,0
0.065,993.652,982.910,-1000.000,-1000.000,0
0.069,-678.711,-639.160,-334.961,608.887,0
0.073,-946.289,-1000.000,309.082,-950.684,0
0.077,550.293,270.996,-195.312,-297.852,0
0.080,-952.637,-956.543,-983.887,-1000.000,0
0.084,-409.668,-374.023,-555.176,261.719,0
0.088,-1000.000,-1000.000,379.395,-792.969,0
0.092,-322.266,-666.992,7.324,651.855,0
0.096,-946.289,882.324,-940.918,-925.293,0
0.100,255.371,374.512,-777.832,-684.570,0
0.104,-1000.000,-1000.000,189.453,979.492,0
0.108,-856.934,-939.453,218.262,945.801,0
0.112,764.648,662.109,-768.555,-691.406,0
0.116,893.066,932.129,-936.523,-1000.000,0
0.120,-848.633,-788.574,-13.672,658.691,0
0.123,-1000.000,-1000.000,350.586,-920.898,0
0.127,679.199,562.988,-574.219,-631.348,0
0.131,995.605,980.469,-1000.000,-1000.000,0
0.135,-662.598,-613.770,-318.848,582.031,0
0.139,-1000.000,-1000.000,301.758,-789.062,0
0.143,361.816,-94.238,-305.176,124.512,0
0.147,-882.812,-966.797,-998.535,-1000.000,0
0.151,-316.895,-236.816,-601.562,30.273,0
0.155,-1000.000,-1000.000,238.281,-813.477,0
0.159,-514.160,-749.512,13.184,740.234,0
0.162,995.117,824.219,-893.066,-854.004,0
0.166,473.145,591.797,-845.215,-816.895,0
0.170,-1000.000,-1000.000,73.730,909.180,0
0.174,-958.496,-966.797,272.949,969.238,0
0.178,654.785,663.086,-652.832,-704.102,0
0.182,991.699,984.375,-995.605,-1000.000,0
0.186,-751.953,-694.336,-243.652,632.812,0
0.190,-1000.000,-1000.000,309.570,-857.422,0
0.194,686.035,466.797,-385.742,-467.285,0
0.198,988.770,995.117,-1000.000,-1000.000,0
0.202,-648.926,-569.824,-462.402,475.098,0
0.205,-1000.000,-1000.000,357.910,-779.785,0
0.209,246.094,-313.477,32.227,349.121,0
0.213,-854.980,999.512,-907.227,-1000.000,0
0.217,-209.961,-67.871,-685.059,-229.004,0
0.221,-1000.000,-1000.000,260.254,-873.535,0
0.225,-673.340,-840.332,260.742,833.496,0
0.229,912.109,740.234,-733.398,-776.367,0
0.233,690.918,756.348,-888.672,-914.062,0
0.237,-991.211,-974.121,50.293,835.449,0
0.241,-985.840,-993.164,293.457,989.258,0
0.245,662.109,671.387,-648.438,-712.891,0
0.248,-987.793,993.164,-1000.000,-1000.000,0
0.252,-693.359,-650.391,-262.207,617.188,0
0.256,-1000.000,-1000.000,305.176,-826.172,0
0.260,583.008,339.844,-445.312,-333.984,0
0.264,-956.543,-967.285,-1000.000,-1000.000,0
0.268,-542.969,-478.027,-409.180,340.332,0
0.272,-1000.000,-1000.000,437.988,-782.227,0
0.276,22.949,-520.508,-75.684,558.594,0
0.280,-866.699,947.754,-949.219,-987.793,0
0.284,11.719,162.598,-721.680,-493.164,0
0.288,-1000.000,-1000.000,140.137,-954.102,0
0.291,-786.621,-905.762,156.738,923.340,0
0.295,821.289,678.711,-786.621,-695.312,0
0.299,820.801,875.000,-932.617,-990.234,0
0.303,-907.715,-869.629,-109.863,752.441,0
0.307,-1000.000,-1000.000,273.438,-967.773,0
0.311,672.852,628.418,-577.148,-679.688,0
0.315,-996.582,985.840,-1000.000,-1000.000,0
0.319,-677.246,-630.859,-370.117,597.656,0
0.323,-1000.000,-1000.000,276.855,-800.293,0
0.327,474.609,131.836,-323.242,-107.910,0
0.331,-916.504,-950.195,-1000.000,-1000.000,0
0.334,-431.641,-355.957,-581.543,196.289,0
0.338,-1000.000,-1000.000,278.809,-791.016,0
0.342,-268.555,-657.227,21.484,654.785,0
0.346,977.051,839.355,-866.211,-927.734,0
0.350,198.242,385.254,-785.645,-727.539,0
0.354,-1000.000,-1000.000,71.289,960.938,0
0.358,-881.836,-948.242,246.582,953.613,0
0.362,740.723,663.086,-681.641,-696.289,0
0.366,923.340,943.848,-1000.000,-1000.000,0
0.370,-820.801,-770.508,-176.758,646.484,0
0.374,-1000.000,-1000.000,334.473,-888.184,0
0.377,681.152,549.805,-533.691,-568.848,0
0.381,995.117,979.980,-1000.000,-1000.000,0
0.385,-661.133,-611.816,-386.719,581.055,0
0.389,-1000.000,-1000.000,346.191,-791.992,0
0.393,353.027,-122.070,-184.082,141.602,0
0.397,-883.789,-967.773,-998.047,-1000.000,0
0.401,-315.430,-216.797,-608.887,-60.547,0
0.405,-1000.000,-1000.000,307.617,-831.543,0
0.409,-545.410,-762.695,83.496,750.488,0
0.413,980.957,812.988,-895.508,-858.887,0
0.417,523.438,635.254,-795.898,-824.707,0
0.420,-1000.000,-1000.000,218.750,907.715,0
0.424,-958.008,-967.773,270.996,965.332,0
0.428,652.832,664.062,-701.172,-703.613,0
0.432,904.297,884.277,-958.496,-929.688,0
0.436,-769.043,-720.703,-166.016,662.598,0
0.440,-1000.000,-1000.000,316.895,-865.723,0
0.444,679.199,431.641,-482.422,-424.805,0
0.448,987.793,-998.535,-1000.000,-1000.000,0
0.452,-642.578,-559.082,-430.664,432.129,0
0.456,-1000.000,-1000.000,320.312,-778.809,0
0.459,181.641,-365.234,-116.699,355.469,0
0.463,-868.652,989.258,-927.734,-1000.000,0
0.467,-202.148,-19.043,-681.152,-296.875,0
0.471,-1000.000,-1000.000,168.945,-892.090,0
0.475,-683.105,-851.074,101.074,842.773,0
0.479,895.020,729.492,-795.410,-781.738,0
0.483,742.188,797.363,-895.020,-912.598,0
0.487,-955.078,-945.312,-65.430,835.449,0
0.491,-996.582,-1000.000,258.789,989.258,0
0.495,666.504,669.434,-632.324,-713.867,0
0.499,-989.746,989.746,-1000.000,-1000.000,0
0.502,-689.941,-643.555,-319.824,613.770,0
0.506,-1000.000,-1000.000,318.848,-819.824,0
0.510,566.895,283.203,-204.590,-298.828,0
0.514,-964.844,-968.262,-984.375,-1000.000,0
0.518,-529.785,-457.520,-557.129,299.316,0
0.522,-1000.000,-1000.000,329.590,-780.762,0
0.526,-142.578,-570.801,-17.578,562.012,0
0.530,-907.227,927.734,-915.039,-990.723,0
0.534,85.938,219.727,-775.879,-519.531,0
0.538,-1000.000,-1000.000,132.324,-963.379,0
0.542,-789.062,-913.574,237.305,927.734,0
0.545,818.359,676.270,-759.766,-698.242,0
0.549,852.539,884.766,-960.449,-985.840,0
0.553,-877.441,-856.934,-70.312,742.188,0
0.557,-1000.000,-1000.000,281.738,-937.012,0
0.561,674.805,619.629,-597.168,-631.836,0
0.565,-996.582,984.863,-1000.000,-1000.000,0
0.569,-677.734,-627.930,-381.836,596.191,0
0.573,-1000.000,-1000.000,247.559,-798.828,0
0.577,472.168,96.191,-296.875,-77.148,0
0.581,-909.180,-950.195,-976.074,-1000.000,0
0.585,-423.340,-333.984,-568.359,153.809,0
0.588,-1000.000,-1000.000,244.141,-790.039,0
0.592,-222.168,-673.828,6.836,656.738,0
0.596,-903.320,883.301,-875.488,-930.176,0
0.600,375.000,450.684,-741.211,-727.051,0
0.604,-1000.000,-1000.000,78.125,960.938,0
0.608,-895.020,-949.219,142.090,953.613,0
0.612,743.164,662.598,-726.562,-696.777,0
0.616,947.754,952.148,-973.633,-1000.000,0
0.620,-791.016,-754.883,-174.805,643.066,0
0.624,-1000.000,-1000.000,298.340,-881.836,0
0.628,687.500,535.156,-506.348,-524.414,0
0.631,989.746,979.492,-1000.000,-1000.000,0
0.635,-661.621,-609.863,-451.172,492.676,0
0.639,-1000.000,-1000.000,264.160,-780.762,0
0.643,391.602,-146.973,-106.445,142.578,0
0.647,-889.648,-973.145,-918.457,-1000.000,0
0.651,-284.180,-201.660,-694.336,-70.312,0
0.655,-1000.000,-1000.000,143.066,-839.355,0
0.659,-519.043,-768.555,158.691,773.926,0
0.663,994.629,808.105,-765.625,-834.473,0
0.667,661.621,670.898,-911.621,-835.449,0
0.671,-979.980,-1000.000,-43.457,897.949,0
0.674,-988.770,-979.980,321.777,973.145,0
0.678,660.645,668.457,-620.605,-706.055,0
0.682,-980.469,985.352,-1000.000,-1000.000,0
0.686,-709.473,-676.758,-281.250,627.930,0
0.690,-1000.000,-1000.000,301.270,-847.656,0
0.694,686.035,414.551,-477.539,-411.133,0
0.698,985.840,-999.512,-1000.000,-1000.000,0
0.702,-645.020,-552.246,-457.520,385.254,0
0.706,-1000.000,-1000.000,315.430,-774.902,0
0.710,167.969,-396.484,-179.199,356.934,0
0.714,-845.215,985.352,-975.098,-1000.000,0
0.717,-42.480,24.902,-684.570,-292.969,0
0.721,-1000.000,-1000.000,178.711,-903.320,0
0.725,-708.496,-865.234,74.219,881.348,0
0.729,895.020,718.262,-841.309,-725.098,0
0.733,774.902,809.570,-855.957,-939.941,0
0.737,-929.688,-934.082,-21.484,816.406,0
0.741,-1000.000,-1000.000,229.980,994.141,0
0.745,668.457,661.621,-620.605,-714.844,0
0.749,-989.258,989.746,-975.098,-1000.000,0
0.753,-692.871,-642.090,-339.355,614.258,0
0.757,-1000.000,-1000.000,255.371,-821.777,0
0.760,572.266,262.207,-313.965,-294.434,0
0.764,-946.289,-959.473,-978.516,-1000.000,0
0.768,-496.582,-434.570,-539.551,275.391,0
0.772,-1000.000,-1000.000,266.602,-781.738,0
0.776,-147.461,-584.473,-31.250,572.754,0
0.780,-891.113,928.223,-898.926,-984.375,0
0.784,232.422,285.645,-759.277,-521.484,0
0.788,-1000.000,-1000.000,104.980,-962.402,0
0.792,-809.570,-925.293,186.035,926.270,0
0.796,825.684,671.875,-727.539,-694.336,0
0.799,864.258,902.832,-951.660,-998.535,0
0.803,-863.770,-829.590,-82.031,726.074,0
0.807,-1000.000,-1000.000,360.840,-934.082,0
0.811,678.223,592.773,-548.828,-632.324,0
0.815,995.605,982.910,-1000.000,-1000.000,0
0.819,-661.621,-620.605,-366.699,596.680,0
0.823,-1000.000,-1000.000,359.863,-798.340,0
0.827,378.418,9.766,-43.457,-77.637,0
0.831,-905.762,-958.984,-950.195,-1000.000,0
0.835,-386.719,-300.293,-625.000,155.273,0
0.839,-1000.000,-1000.000,325.684,-797.852,0
0.842,-402.832,-708.008,9.766,694.824,0
0.846,-961.426,857.910,-926.758,-895.020,0
0.850,460.449,518.555,-814.453,-735.840,0
0.854,-1000.000,-1000.000,116.211,963.379,0
0.858,-900.879,-958.008,188.965,953.613,0
0.862,756.348,671.875,-760.742,-706.543,0
0.866,936.523,958.984,-978.516,-1000.000,0
0.870,-791.992,-726.074,-169.434,644.043,0
0.874,-840.820,-948.730,212.402,921.875,0
0.878,760.742,583.984,-564.941,-600.098,0
0.882,954.590,948.730,-1000.000,-1000.000,0
0.885,-631.836,-582.520,-344.238,476.074,0
0.889,-1000.000,-1000.000,354.980,-775.391,0
0.893,253.906,-219.727,-193.848,150.391,0
0.897,-870.605,-983.398,-969.238,-1000.000,0
0.901,-255.859,-151.855,-645.020,-69.824,0
0.905,-1000.000,-1000.000,234.375,-845.703,0
0.909,-606.445,-793.457,43.945,799.805,0
0.913,958.496,785.156,-863.281,-807.129,0
0.917,676.758,706.055,-803.223,-834.961,0
0.921,-986.816,-995.605,35.645,904.785,0
0.925,-986.816,-985.352,269.531,971.680,0
0.928,662.109,669.434,-610.840,-706.055,0
0.932,-986.816,988.770,-1000.000,-1000.000,0
0.936,-694.336,-664.062,-258.789,627.930,0
0.940,-1000.000,-1000.000,294.434,-847.656,0
0.944,604.980,382.324,-388.184,-411.133,0
0.948,-990.723,-986.816,-1000.000,-1000.000,0
0.952,-594.238,-524.902,-489.258,383.301,0
0.956,-1000.000,-1000.000,330.078,-775.391,0
0.960,24.414,-444.336,-64.453,395.996,0
0.964,-867.188,973.633,-944.336,-1000.000,0
0.968,15.137,77.637,-709.961,-297.852,0
0.971,-1000.000,-1000.000,239.258,-906.250,0
0.975,-711.426,-877.930,274.414,902.832,0
0.979,897.949,706.543,-766.602,-699.707,0
0.983,774.414,832.520,-942.871,-933.594,0
0.987,-929.199,-912.109,-15.137,829.102,0
0.991,-1000.000,-1000.000,290.527,992.188,0
0.995,670.410,649.414,-606.445,-713.867,0
0.999,-995.605,988.281,-1000.000,-1000.000,0
1.003,-677.734,-637.695,-275.879,614.258,0
1.007,-1000.000,-1000.000,390.137,-821.777,0
1.011,489.258,216.797,-375.000,-294.434,0
1.014,-934.570,-954.590,-1000.000,-1000.000,0
1.018,-475.098,-407.715,-455.566,276.855,0
1.022,-1000.000,-1000.000,336.426,-791.016,0
1.026,-192.383,-623.535,-78.125,626.465,0
1.030,-903.320,905.762,-928.223,-942.871,0
1.034,237.305,317.871,-771.484,-533.691,0
1.038,-1000.000,-1000.000,95.215,-957.520,0
1.042,-825.195,-931.641,134.766,922.363,0
1.046,808.105,666.504,-793.945,-684.570,0
1.050,868.164,914.062,-969.238,-1000.000,0
1.054,-864.746,-815.430,-104.492,680.176,0
1.057,-1000.000,-1000.000,306.641,-926.758,0
1.061,678.711,582.520,-563.965,-633.789,0
1.065,995.605,982.422,-1000.000,-1000.000,0
1.069,-662.109,-619.629,-378.418,591.797,0
1.073,-1000.000,-1000.000,299.805,-794.434,0
1.077,363.281,-9.277,-258.789,-23.926,0
1.081,-882.324,-953.613,-964.844,-1000.000,0
1.085,-332.520,-274.414,-622.559,149.902,0
1.089,-1000.000,-1000.000,207.520,-802.246,0
1.093,-405.273,-730.957,39.062,732.422,0
1.096,-953.613,844.727,-883.789,-868.652,0
1.100,451.660,544.434,-838.867,-734.375,0
1.104,-1000.000,-1000.000,58.105,967.285,0
1.108,-825.684,-861.816,175.781,757.324,0
1.112,748.535,696.289,-703.613,-772.461,0
1.116,936.035,960.449,-995.117,-1000.000,0
1.120,-783.691,-703.613,-222.168,627.441,0
1.124,-1000.000,-1000.000,360.840,-876.465,0
1.128,685.059,493.164,-464.844,-525.391,0
1.132,987.793,986.328,-1000.000,-1000.000,0
1.136,-649.414,-588.379,-409.180,484.375,0
1.139,-1000.000,-1000.000,370.117,-776.855,0
1.143,246.094,-261.719,-122.070,266.602,0
1.147,-854.492,-989.258,-982.910,-1000.000,0
1.151,-208.984,-109.863,-638.672,-86.426,0
1.155,-1000.000,-1000.000,320.312,-841.797,0
1.159,-633.301,-821.777,124.023,819.336,0
1.163,942.871,757.812,-884.277,-779.297,0
1.167,682.129,732.422,-829.102,-857.910,0
1.171,-993.652,-990.234,198.242,895.508,0
1.175,-979.980,-982.910,281.738,969.727,0
1.179,660.645,668.457,-695.312,-705.566,0
1.182,913.086,892.578,-991.211,-927.734,0
1.186,-727.051,-691.406,-251.953,659.668,0
1.190,-1000.000,-1000.000,300.293,-860.352,0
1.194,576.660,359.375,-440.918,-392.090,0
1.198,-957.520,-974.609,-1000.000,-1000.000,0
1.202,-549.316,-502.930,-441.895,375.977,0
1.206,-1000.000,-1000.000,340.820,-777.832,0
1.210,24.414,-496.582,-87.891,546.387,0
1.214,-860.840,958.984,-923.340,-986.328,0
1.218,7.812,112.793,-725.586,-317.383,0
1.222,-1000.000,-1000.000,129.883,-896.973,0
1.225,-627.930,-791.504,70.801,799.805,0
1.229,916.992,729.492,-833.008,-723.633,0
1.233,761.719,827.148,-936.523,-946.289,0
1.237,-922.363,-894.043,-91.797,795.898,0
1.241,-1000.000,-1000.000,301.758,995.117,0
1.245,670.898,640.625,-596.191,-715.820,0
1.249,-996.094,987.305,-1000.000,-911.133,0
1.253,-677.246,-634.277,-337.402,633.789,0
1.257,-1000.000,-1000.000,335.938,-817.383,0
1.261,474.121,177.246,-141.602,-144.043,0
1.265,-912.598,-950.195,-975.586,-1000.000,0
1.268,-433.594,-380.371,-572.266,260.254,0
1.272,-1000.000,-1000.000,320.312,-786.133,0
1.276,-193.359,-633.789,1.465,645.508,0
1.280,-901.367,902.832,-905.273,-927.246,0
1.284,236.816,357.422,-792.969,-593.750,0
1.288,-1000.000,-1000.000,140.625,-980.469,0
1.292,-835.938,-937.500,291.992,930.176,0
1.296,795.898,668.457,-706.543,-686.035,0
1.300,870.605,914.062,-972.168,-1000.000,0
1.304,-865.234,-811.523,-87.402,647.461,0
1.308,-1000.000,-1000.000,298.828,-890.625,0
1.311,678.711,571.777,-573.242,-573.730,0
1.315,995.605,982.910,-1000.000,-1000.000,0
1.319,-662.598,-618.652,-340.332,579.102,0
1.323,-1000.000,-1000.000,322.266,-782.715,0
1.327,361.328,-24.414,-246.094,125.488,0
1.331,-877.441,-954.590,-963.867,-1000.000,0
1.335,-321.777,-266.602,-649.414,91.309,0
1.339,-1000.000,-1000.000,165.527,-800.293,0
1.343,-405.273,-727.051,26.855,732.422,0
1.347,-958.496,844.238,-854.004,-849.121,0
1.351,458.496,570.801,-774.902,-821.777,0
1.354,-1000.000,-1000.000,15.137,906.250,0
1.358,-919.434,-964.844,155.762,970.215,0
1.362,722.656,664.551,-686.035,-704.590,0
1.366,950.684,974.609,-988.770,-1000.000,0
1.370,-791.504,-707.520,-284.668,630.859,0
1.374,-1000.000,-1000.000,256.348,-853.516,0
1.378,685.059,474.121,-465.332,-459.961,0
1.382,987.793,987.305,-1000.000,-1000.000,0
1.386,-649.414,-584.961,-479.980,478.516,0
1.390,-1000.000,-1000.000,269.043,-779.297,0
1.394,246.094,-287.109,-91.797,349.121,0
1.397,-854.004,-993.652,-925.293,-1000.000,0
1.401,-208.496,-85.449,-735.840,-226.562,0
1.405,-1000.000,-1000.000,132.812,-872.559,0
1.409,-609.375,-822.754,129.395,833.008,0
1.413,960.938,758.789,-809.082,-776.367,0
1.417,676.758,746.582,-922.363,-914.062,0
1.421,-986.816,-977.051,-83.496,835.449,0
1.425,-986.816,-991.699,228.516,989.258,0
1.429,662.109,671.387,-642.578,-712.891,0
1.433,-987.793,991.699,-1000.000,-1000.000,0
1.436,-693.359,-656.250,-307.129,614.746,0
1.440,-1000.000,-1000.000,256.836,-820.801,0
1.444,583.008,359.375,-446.289,-330.566,0
1.448,-951.660,-963.379,-1000.000,-1000.000,0
1.452,-549.316,-504.395,-485.352,379.883,0
1.456,-1000.000,-1000.000,349.121,-781.738,0
1.460,124.023,-308.105,-121.582,361.328,0
1.464,-831.543,-970.703,-957.031,-1000.000,0
1.468,-0.977,111.816,-715.820,-465.332,0
1.472,-1000.000,-1000.000,112.793,-972.168,0
1.476,-719.727,-902.344,94.238,930.176,0
1.479,886.230,690.430,-828.613,-695.801,0
1.483,801.270,855.957,-869.629,-989.746,0
1.487,-906.250,-889.160,82.520,751.465,0
1.491,-1000.000,-1000.000,288.574,-965.332,0
1.495,672.363,636.719,-614.258,-676.270,0
1.499,-996.094,987.305,-1000.000,-1000.000,0
1.503,-677.246,-634.277,-375.000,595.215,0
1.507,-1000.000,-1000.000,250.488,-796.387,0
1.511,474.121,168.457,-333.008,-83.984,0
1.515,-912.598,-943.848,-1000.000,-1000.000,0
1.519,-433.594,-363.281,-565.918,200.195,0
1.522,-1000.000,-1000.000,270.996,-790.527,0
1.526,-193.359,-648.438,-26.855,554.199,0
1.530,-901.367,895.508,-868.164,-961.914,0
1.534,235.840,384.766,-775.391,-695.801,0
1.538,-1000.000,-1000.000,70.801,959.473,0
1.542,-852.051,-941.895,204.102,953.613,0
1.546,765.625,663.086,-726.562,-694.336,0
1.550,915.039,932.129,-990.723,-1000.000,0
1.554,-822.754,-786.621,-170.898,652.832,0
1.558,-1000.000,-1000.000,325.684,-906.250,0
1.562,680.664,557.617,-532.227,-603.027,0
1.565,995.605,980.469,-1000.000,-1000.000,0
1.569,-662.598,-613.281,-398.438,580.078,0
1.573,-1000.000,-1000.000,336.914,-785.645,0
1.577,361.328,-104.492,-140.625,128.906,0
1.581,-878.906,-966.309,-988.281,-1000.000,0
1.585,-320.801,-227.539,-615.234,62.500,0
1.589,-1000.000,-1000.000,316.406,-806.641,0
1.593,-436.035,-744.629,32.715,735.840,0
1.597,-971.191,829.590,-915.527,-851.562,0
1.601,509.277,620.117,-837.402,-818.359,0
1.605,-1000.000,-1000.000,141.113,908.691,0
1.608,-959.473,-972.168,257.324,969.727,0
1.612,665.039,665.527,-740.723,-705.078,0
1.616,-995.117,982.910,-992.676,-1000.000,0
1.620,-730.957,-688.477,-45.410,625.488,0
1.624,-1000.000,-1000.000,373.047,-840.332,0
1.628,687.012,444.336,-531.738,-429.199,0
1.632,987.793,992.188,-1000.000,-1000.000,0
1.636,-647.461,-571.289,-412.598,476.562,0
1.640,-1000.000,-1000.000,327.148,-774.414,0
1.644,227.539,-343.262,-136.719,344.238,0
1.648,-858.398,992.188,-972.168,-1000.000,0
1.651,-207.031,-49.316,-576.660,-172.363,0
1.655,-1000.000,-1000.000,317.871,-857.422,0
1.659,-656.738,-836.426,56.641,825.195,0
1.663,916.992,742.676,-865.723,-772.461,0
1.667,728.027,777.344,-887.695,-915.527,0
1.671,-958.984,-957.031,14.160,835.449,0
1.675,-995.117,-997.559,292.969,989.258,0
1.679,665.527,673.340,-600.586,-713.867,0
1.683,-988.281,991.211,-996.094,-1000.000,0
1.687,-693.359,-646.484,-329.102,611.816,0
1.691,-1000.000,-1000.000,289.062,-813.965,0
1.694,583.496,313.477,-340.332,-312.012,0
1.698,-958.496,-973.145,-1000.000,-1000.000,0
1.702,-540.527,-479.004,-530.273,371.094,0
1.706,-1000.000,-1000.000,311.523,-780.273,0
1.710,-7.812,-534.668,1.953,555.176,0
1.714,-875.000,942.383,-922.363,-985.352,0
1.718,17.090,178.223,-753.906,-458.496,0
1.722,-1000.000,-1000.000,186.035,-941.895,0
1.726,-768.555,-903.320,208.008,917.969,0
1.730,828.125,681.152,-788.574,-692.871,0
1.733,852.539,882.812,-963.867,-988.770,0
1.737,-874.023,-860.840,-52.734,746.094,0
1.741,-1000.000,-1000.000,345.703,-948.242,0
1.745,674.805,628.906,-601.074,-649.414,0
1.749,-996.582,984.375,-1000.000,-1000.000,0
1.753,-677.246,-627.930,-310.547,593.750,0
1.757,-1000.000,-1000.000,395.508,-791.016,0
1.761,475.098,105.469,-321.777,-93.262,0
1.765,-920.410,-957.031,-1000.000,-1000.000,0
1.769,-424.316,-353.027,-487.793,252.930,0
1.773,-1000.000,-1000.000,402.344,-787.109,0
1.776,-343.262,-678.711,-38.086,649.414,0
1.780,-952.148,875.488,-940.918,-925.293,0
1.784,282.227,417.480,-790.039,-695.801,0
1.788,-1000.000,-1000.000,77.148,974.609,0
1.792,-874.512,-943.848,152.344,947.754,0
1.796,733.887,660.156,-772.949,-694.336,0
1.800,950.195,952.148,-990.234,-1000.000,0
1.804,-791.016,-759.766,-178.711,641.113,0
1.808,-1000.000,-1000.000,291.504,-875.000,0
1.812,683.105,547.852,-531.250,-542.969,0
1.816,994.629,979.004,-1000.000,-1000.000,0
1.819,-659.668,-610.352,-386.719,579.102,0
1.823,-1000.000,-1000.000,285.645,-784.668,0
1.827,342.773,-143.066,-217.285,131.348,0
1.831,-886.230,-973.633,-981.934,-1000.000,0
1.835,-312.500,-213.867,-658.691,39.551,0
1.839,-1000.000,-1000.000,225.098,-814.941,0
1.843,-599.121,-772.949,84.473,752.930,0
1.847,957.520,802.246,-855.469,-836.426,0
1.851,582.520,648.438,-855.957,-829.102,0
1.855,-1000.000,-1000.000,27.832,903.320,0
1.859,-970.215,-975.098,280.762,971.680,0
1.862,653.320,665.527,-650.879,-705.566,0
1.866,-978.516,987.793,-1000.000,-1000.000,0
1.870,-709.961,-681.641,-240.723,625.488,0
1.874,-1000.000,-1000.000,372.559,-840.332,0
1.878,688.965,441.406,-399.414,-429.199,0
1.882,979.004,998.535,-1000.000,-1000.000,0
1.886,-632.324,-554.199,-443.848,477.051,0
1.890,-1000.000,-1000.000,356.445,-779.297,0
1.894,84.473,-399.414,-120.605,350.586,0
1.898,-888.184,975.586,-979.980,-1000.000,0
1.902,-186.523,-18.555,-669.434,-246.094,0
1.905,-1000.000,-1000.000,302.246,-884.277,0
1.909,-687.988,-853.516,142.578,856.445,0
1.913,885.254,722.656,-875.977,-750.488,0
1.917,770.508,805.664,-860.840,-918.457,0
1.921,-935.059,-938.965,139.160,835.938,0
1.925,-1000.000,-1000.000,281.250,989.746,0
1.929,668.945,668.457,-679.199,-713.379,0
1.933,-992.188,988.770,-1000.000,-1000.000,0
1.937,-684.082,-641.602,-219.727,612.305,0
1.941,-1000.000,-1000.000,304.199,-815.430,0
1.945,539.062,267.090,-442.383,-309.082,0
1.948,-962.891,-970.703,-1000.000,-1000.000,0
1.952,-528.809,-457.031,-441.406,353.516,0
1.956,-1000.000,-1000.000,326.660,-781.738,0
1.960,-152.832,-571.289,-84.961,558.594,0
1.964,-906.738,927.734,-913.574,-987.793,0
1.968,114.746,224.121,-754.395,-502.930,0
1.972,-1000.000,-1000.000,120.605,-957.520,0
1.976,-791.992,-912.598,128.906,924.805,0
1.980,816.895,676.270,-791.504,-696.777,0
1.984,867.188,893.066,-959.961,-986.328,0
1.988,-869.141,-850.586,-109.863,747.559,0
1.991,-1000.000,-1000.000,316.895,-943.359,0
1.995,674.805,608.887,-581.543,-630.371,0
1.999,901.855,884.766,-1000.000,-918.457,0
2.003,-708.008,-659.668,-348.633,629.883,0
2.007,-1000.000,-1000.000,337.891,-812.012,0
2.011,443.848,62.500,-144.531,-74.707,0
2.015,-910.645,-950.684,-976.562,-1000.000,0
2.019,-411.621,-324.219,-607.910,187.500,0
2.023,-1000.000,-1000.000,325.195,-792.969,0
2.027,-337.402,-682.617,158.203,671.387,0
2.030,-945.801,876.465,-843.262,-913.086,0
2.034,346.191,452.637,-834.473,-730.957,0
2.038,-1000.000,-1000.000,90.332,961.914,0
2.042,-885.254,-949.707,172.363,953.125,0
2.046,738.770,663.086,-733.398,-697.266,0
2.050,949.219,950.195,-970.215,-1000.000,0
2.054,-791.016,-759.277,-116.699,642.578,0
2.058,-1000.000,-1000.000,361.328,-880.371,0
2.062,682.129,542.969,-555.664,-528.320,0
2.066,996.094,981.934,-1000.000,-1000.000,0
2.070,-664.062,-614.258,-348.633,510.742,0
2.073,-1000.000,-1000.000,319.824,-783.203,0
2.077,352.051,-103.027,-239.258,142.578,0
2.081,-861.816,-953.125,-963.867,-1000.000,0
2.085,-258.301,-186.035,-683.594,-67.871,0
2.089,-1000.000,-1000.000,132.324,-848.145,0
2.093,-511.230,-770.996,50.293,808.105,0
2.097,-999.023,810.547,-847.168,-798.340,0
2.101,628.906,657.227,-867.188,-836.914,0
2.105,-992.676,-1000.000,-28.320,905.762,0
2.109,-983.398,-977.539,209.961,971.680,0
2.113,658.203,666.992,-661.621,-706.055,0
2.116,-979.980,984.863,-965.820,-1000.000,0
2.120,-709.961,-679.688,-286.133,627.441,0
2.124,-1000.000,-1000.000,254.883,-846.191,0
2.128,688.477,422.852,-454.102,-415.039,0
2.132,983.398,997.559,-1000.000,-1000.000,0
2.136,-640.625,-555.176,-507.812,402.832,0
2.140,-1000.000,-1000.000,274.902,-777.344,0
2.144,154.785,-404.785,-41.992,419.434,0
2.148,-869.629,973.145,-906.738,-1000.000,0
2.152,-172.363,-23.926,-755.371,-301.758,0
2.156,-1000.000,-1000.000,85.449,-904.785,0
2.159,-691.895,-866.211,106.934,904.785,0
2.163,885.742,706.543,-794.434,-698.730,0
2.167,777.344,806.641,-932.617,-926.270,0
2.171,-929.199,-941.406,-109.863,837.402,0
2.175,-1000.000,-1000.000,306.152,990.234,0
2.179,668.457,668.457,-592.285,-713.867,0
2.183,-988.770,989.746,-1000.000,-1000.000,0
2.187,-694.336,-644.043,-318.359,614.258,0
2.191,-1000.000,-1000.000,331.055,-821.777,0
2.195,577.148,278.320,-379.395,-294.434,0
2.199,-942.383,-960.938,-1000.000,-1000.000,0
2.202,-501.465,-443.359,-510.254,276.367,0
2.206,-1000.000,-1000.000,288.086,-788.086,0
2.210,-81.543,-570.801,-63.477,610.352,0
2.214,-873.047,933.105,-934.570,-955.566,0
2.218,223.145,260.254,-728.516,-529.785,0
2.222,-1000.000,-1000.000,204.590,-959.961,0
2.226,-810.547,-921.387,164.062,927.246,0
2.230,826.172,675.781,-797.852,-698.242,0
2.234,864.258,889.648,-889.648,-985.840,0
2.238,-863.770,-847.656,0.977,742.188,0
2.242,-1000.000,-1000.000,266.113,-937.012,0
2.245,676.270,606.445,-597.168,-631.836,0
2.249,-997.070,983.887,-996.094,-1000.000,0
2.253,-677.734,-624.512,-377.930,596.680,0
2.257,-1000.000,-1000.000,246.094,-798.828,0
2.261,457.520,54.688,-305.176,-77.637,0
2.265,-892.090,-952.637,-994.141,-1000.000,0
2.269,-362.305,-313.477,-642.578,156.250,0
2.273,-1000.000,-1000.000,170.898,-802.246,0
2.277,-345.215,-689.941,25.391,714.844,0
2.281,-939.453,872.070,-869.629,-876.465,0
2.285,450.684,485.352,-819.824,-740.234,0
2.288,-1000.000,-1000.000,24.414,964.355,0
2.292,-901.855,-954.102,200.684,953.125,0
2.296,746.582,663.574,-640.137,-696.777,0
2.300,946.777,955.566,-980.957,-1000.000,0
2.304,-791.016,-742.188,-283.203,642.578,0
2.308,-1000.000,-1000.000,272.949,-881.836,0
2.312,683.105,509.277,-485.840,-524.902,0
2.316,993.652,979.980,-1000.000,-1000.000,0
2.320,-660.156,-607.422,-460.938,488.770,0
2.324,-1000.000,-1000.000,297.363,-779.297,0
2.328,318.359,-182.617,-115.234,201.172,0
2.331,-858.887,-973.633,-954.590,-1000.000,0
2.335,-232.910,-164.551,-682.129,-76.660,0
2.339,-1000.000,-1000.000,216.309,-845.703,0
2.343,-598.633,-779.297,116.211,815.918,0
2.347,964.355,801.270,-862.793,-788.574,0
2.351,674.805,679.199,-876.465,-838.867,0
2.355,-985.840,-1000.000,45.410,905.762,0
2.359,-986.816,-980.469,221.191,971.680,0
2.363,661.133,667.969,-686.035,-706.055,0
2.367,-982.422,987.305,-999.023,-1000.000,0
2.370,-706.055,-670.898,-293.457,627.930,0
2.374,-1000.000,-1000.000,267.578,-847.656,0
2.378,659.180,400.879,-433.105,-411.133,0
2.382,-994.141,-995.117,-1000.000,-1000.000,0
2.386,-605.957,-543.457,-384.766,381.348,0
2.390,-1000.000,-1000.000,320.801,-776.367,0
2.394,105.469,-412.598,-123.047,440.918,0
2.398,-850.586,981.934,-934.082,-1000.000,0
2.402,5.371,45.410,-717.773,-306.152,0
2.406,-1000.000,-1000.000,161.621,-900.879,0
2.410,-712.891,-875.488,75.684,894.531,0
2.413,897.949,706.055,-839.355,-711.426,0
2.417,774.414,827.148,-891.602,-924.316,0
2.421,-929.199,-917.969,-9.766,836.914,0
2.425,-1000.000,-1000.000,292.969,990.234,0
2.429,670.410,652.344,-596.191,-713.867,0
2.433,-995.117,988.281,-1000.000,-1000.000,0
2.437,-679.199,-638.672,-340.820,614.258,0
2.441,-1000.000,-1000.000,293.457,-821.777,0
2.445,495.117,226.562,-329.590,-294.922,0
2.449,-931.641,-954.102,-1000.000,-1000.000,0
2.453,-468.750,-413.086,-539.551,276.367,0
2.456,-1000.000,-1000.000,335.938,-787.109,0
2.460,-192.383,-586.426,74.707,604.004,0
2.464,-902.832,927.734,-897.461,-959.961,0
2.468,238.770,294.922,-773.438,-528.809,0
2.472,-1000.000,-1000.000,181.641,-960.449,0
2.476,-808.594,-926.270,274.902,927.246,0
2.480,826.172,673.340,-749.023,-698.242,0
2.484,864.258,901.855,-983.887,-985.840,0
2.488,-863.770,-829.102,-82.520,742.188,0
2.492,-1000.000,-1000.000,303.711,-937.012,0
2.496,678.711,589.844,-586.426,-631.836,0
2.499,995.605,982.910,-1000.000,-1000.000,0
2.503,-661.621,-621.094,-342.285,594.727,0
2.507,-1000.000,-1000.000,319.336,-797.363,0
2.511,366.211,9.277,-290.039,-59.570,0
2.515,-889.160,-953.125,-1000.000,-1000.000,0
2.519,-348.633,-286.621,-525.879,154.785,0
2.523,-1000.000,-1000.000,398.438,-804.199,0
2.527,-404.297,-706.543,4.395,729.492,0
2.531,-959.961,860.840,-916.504,-862.793,0
2.535,460.449,536.621,-764.648,-743.652,0
2.539,-1000.000,-1000.000,81.055,965.332,0
2.542,-900.879,-960.938,182.129,953.125,0
2.546,747.070,663.574,-727.539,-696.777,0
2.550,946.777,968.750,-995.605,-1000.000,0
2.554,-791.016,-721.680,-213.379,642.090,0
2.558,-1000.000,-1000.000,278.320,-878.906,0
2.562,685.059,496.094,-512.207,-532.715,0
2.566,987.793,981.934,-1000.000,-1000.000,0
2.570,-648.926,-600.586,-410.645,520.020,0
2.574,-1000.000,-1000.000,323.242,-781.738,0
2.578,248.047,-222.656,-116.699,260.742,0
2.582,-857.910,-979.980,-942.383,-1000.000,0
2.585,-219.727,-132.812,-662.109,-85.449,0
2.589,-1000.000,-1000.000,227.539,-842.285,0
2.593,-608.398,-802.246,126.953,819.824,0
2.597,960.449,778.320,-830.078,-783.203,0
2.601,676.758,711.426,-895.508,-839.844,0
2.605,-986.816,-994.141,-3.906,906.250,0
2.609,-986.816,-985.840,299.316,971.680,0
2.613,662.109,669.434,-637.207,-706.055,0
2.617,-986.816,990.723,-1000.000,-1000.000,0
2.621,-694.336,-662.109,-258.789,625.488,0
2.625,-1000.000,-1000.000,337.891,-842.773,0
2.628,604.492,383.301,-453.613,-403.320,0
2.632,-989.746,-988.281,-1000.000,-1000.000,0
2.636,-593.262,-524.902,-435.547,392.578,0
2.640,-1000.000,-1000.000,384.277,-778.320,0
2.644,24.414,-464.355,-100.098,506.348,0
2.648,-867.188,963.379,-974.609,-998.047,0
2.652,15.137,76.660,-707.031,-316.895,0
2.656,-1000.000,-1000.000,203.125,-898.926,0
2.660,-711.426,-881.348,145.020,902.832,0
2.664,897.949,700.684,-843.262,-698.730,0
2.667,774.414,836.426,-880.859,-926.758,0
2.671,-929.199,-909.180,116.211,842.773,0
2.675,-1000.000,-1000.000,310.059,984.375,0
2.679,670.898,648.438,-639.160,-712.891,0
2.683,-996.582,987.305,-1000.000,-914.551,0
2.687,-676.758,-635.742,-308.105,638.672,0
2.691,-1000.000,-1000.000,311.523,-825.195,0
2.695,479.492,198.242,-373.047,-197.266,0
2.699,-927.246,-955.566,-1000.000,-1000.000,0
2.703,-461.914,-401.855,-427.734,266.113,0
2.707,-1000.000,-1000.000,351.562,-787.598,0
2.710,-192.383,-626.953,-54.688,644.043,0
2.714,-902.832,904.297,-900.879,-928.223,0
2.718,238.770,324.219,-770.020,-537.598,0
2.722,-1000.000,-1000.000,96.191,-956.543,0
2.726,-808.594,-929.688,128.906,925.293,0
2.730,825.684,668.945,-756.348,-693.359,0
2.734,864.258,918.945,-952.148,-1000.000,0
2.738,-863.770,-809.082,-144.043,721.191,0
2.742,-1000.000,-1000.000,299.805,-933.594,0
2.746,678.711,582.031,-567.383,-634.277,0
2.750,995.605,982.910,-1000.000,-1000.000,0
2.753,-662.109,-619.629,-319.336,582.031,0
2.757,-1000.000,-1000.000,364.258,-784.668,0
2.761,364.258,-5.371,-70.801,91.797,0
2.765,-885.254,-955.078,-924.316,-1000.000,0
2.769,-338.867,-281.250,-657.715,133.301,0
2.773,-1000.000,-1000.000,228.027,-793.457,0
2.777,-404.785,-717.773,13.184,729.980,0
2.781,-959.473,851.074,-883.301,-859.375,0
2.785,460.449,538.086,-838.867,-744.629,0
2.789,-1000.000,-1000.000,18.066,965.820,0
2.793,-900.879,-960.449,153.320,953.125,0
2.796,746.582,664.062,-720.703,-698.730,0
2.800,946.777,966.309,-986.816,-1000.000,0
2.804,-791.016,-721.191,-194.336,630.859,0
2.808,-1000.000,-1000.000,318.359,-853.516,0
2.812,685.059,487.305,-522.949,-459.961,0
2.816,987.793,978.516,-1000.000,-1000.000,0
2.820,-648.926,-602.051,-386.230,477.539,0
2.824,-1000.000,-1000.000,264.648,-771.484,0
2.828,247.559,-247.559,-235.840,338.379,0
2.832,-847.656,-980.957,-955.078,-1000.000,0
2.836,-229.004,-151.855,-693.359,-85.449,0
2.839,-1000.000,-1000.000,85.449,-828.125,0
2.843,-412.598,-609.863,-42.969,526.855,0
2.847,-963.867,845.703,-851.562,-896.484,0
2.851,643.066,694.824,-874.512,-838.379,0
2.855,-970.703,-969.727,-90.332,836.914,0
2.859,-992.188,-994.141,184.570,991.211,0
2.863,661.133,669.922,-641.113,-711.426,0
2.867,-983.398,992.676,-1000.000,-1000.000,0
2.871,-704.102,-660.156,-332.520,615.234,0
2.875,-1000.000,-1000.000,257.812,-820.312,0
2.879,636.230,384.766,-404.297,-331.543,0
2.882,-967.285,-986.328,-1000.000,-1000.000,0
2.886,-549.805,-518.066,-526.855,371.582,0
2.890,-1000.000,-1000.000,258.301,-773.926,0
2.894,24.414,-495.605,-40.039,546.387,0
2.898,-865.723,951.172,-895.996,-980.957,0
2.902,15.137,97.168,-779.785,-323.730,0
2.906,-1000.000,-1000.000,41.016,-895.508,0
2.910,-711.426,-886.719,195.801,897.949,0
2.914,897.949,695.801,-712.402,-687.012,0
2.918,774.414,841.309,-963.379,-974.609,0
2.922,-929.199,-905.273,-134.766,775.391,0
2.925,-1000.000,-1000.000,280.273,-976.562,0
2.929,670.898,645.996,-577.637,-685.547,0
2.933,-995.605,987.305,-1000.000,-1000.000,0
2.937,-678.711,-635.742,-338.867,593.750,0
2.941,-1000.000,-1000.000,386.719,-791.992,0
2.945,480.469,193.359,-217.285,-93.750,0
2.949,-913.086,-951.660,-1000.000,-1000.000,0
2.953,-433.594,-392.090,-560.547,252.930,0
2.957,-1000.000,-1000.000,269.531,-782.715,0
2.961,-193.359,-631.836,-38.086,645.020,0
2.965,-901.855,902.832,-899.414,-927.246,0
2.968,238.770,341.797,-780.762,-600.098,0
2.972,-1000.000,-1000.000,53.711,-983.398,0
2.976,-807.129,-934.570,159.180,931.152,0
2.980,820.801,666.992,-763.672,-686.035,0
2.984,885.254,917.969,-914.062,-1000.000,0
2.988,-841.309,-808.594,30.273,647.461,0
2.992,-1000.000,-1000.000,315.918,-891.602,0
2.996,679.688,574.707,-591.309,-575.195,0
3.000,995.605,980.957,-1000.000,-1000.000,0
3.004,-662.598,-616.211,-414.551,578.613,0
3.007,-1000.000,-1000.000,250.488,-780.273,0
3.011,361.328,-55.176,-268.555,121.582,0
3.015,-877.930,-961.426,-994.629,-1000.000,0
3.019,-321.777,-257.812,-654.785,129.395,0
3.023,-1000.000,-1000.000,156.250,-791.992,0
3.027,-405.273,-734.863,-6.836,728.516,0
3.031,-958.496,836.914,-876.465,-852.051,0
3.035,458.984,578.125,-838.867,-789.062,0
3.039,-1000.000,-1000.000,-4.883,931.641,0
3.043,-909.180,-965.332,199.707,963.379,0
3.047,715.820,662.598,-681.152,-702.148,0
3.050,997.559,983.887,-993.164,-1000.000,0
3.054,-728.516,-698.242,-293.457,629.883,0
3.058,-1000.000,-1000.000,302.246,-850.098,0
3.062,686.523,478.516,-329.590,-452.148,0
3.066,989.258,989.746,-1000.000,-1000.000,0
3.070,-649.414,-579.590,-467.285,483.398,0
3.074,-1000.000,-1000.000,329.590,-772.949,0
3.078,246.094,-302.246,-110.840,238.281,0
3.082,-854.492,-999.023,-955.566,-1000.000,0
3.086,-209.473,-82.520,-702.637,-81.543,0
3.090,-1000.000,-1000.000,203.613,-844.238,0
3.093,-648.926,-838.379,83.984,820.312,0
3.097,927.734,740.723,-884.277,-779.785,0
3.101,702.637,755.859,-858.887,-855.469,0
3.105,-976.562,-974.609,86.914,891.602,0
3.109,-989.746,-992.676,272.949,975.098,0
3.113,663.574,671.387,-684.082,-708.984,0
3.117,-987.793,993.164,-1000.000,-1000.000,0
3.121,-693.359,-649.902,-98.633,614.258,0
3.125,-1000.000,-1000.000,433.105,-819.336,0
3.129,583.496,340.332,-448.242,-328.613,0
3.133,-958.008,-969.727,-1000.000,-1000.000,0
3.136,-541.016,-481.445,-369.629,371.582,0
3.140,-1000.000,-1000.000,407.715,-773.926,0
3.144,-3.418,-527.344,-111.816,546.387,0
3.148,-873.535,942.383,-954.590,-980.957,0
3.152,16.602,150.879,-728.516,-323.730,0
3.156,-1000.000,-1000.000,157.715,-895.020,0
3.160,-762.695,-899.414,128.418,897.949,0
3.164,835.938,681.152,-813.965,-686.035,0
3.168,842.285,878.418,-919.434,-978.516,0
3.172,-881.836,-869.141,-63.477,772.949,0
3.176,-1000.000,-1000.000,290.527,-979.004,0
3.179,674.316,641.602,-578.613,-690.918,0
3.183,-996.582,984.863,-1000.000,-1000.000,0
3.187,-677.246,-631.348,-367.188,593.750,0
3.191,-1000.000,-1000.000,290.039,-792.480,0
3.195,474.609,138.672,-245.605,-93.750,0
3.199,-919.434,-954.590,-981.934,-1000.000,0
3.203,-425.293,-365.723,-595.703,252.930,0
3.207,-1000.000,-1000.000,270.508,-779.785,0
3.211,-326.172,-671.387,-16.113,642.090,0
3.215,-947.754,878.906,-921.875,-928.223,0
3.219,255.371,387.695,-790.039,-537.598,0
3.222,-1000.000,-1000.000,132.324,-956.055,0
3.226,-863.770,-940.430,252.930,921.387,0
3.230,746.094,660.156,-742.676,-684.082,0
3.234,930.176,943.848,-997.559,-1000.000,0
3.238,-811.035,-774.414,-110.352,660.645,0
3.242,-1000.000,-1000.000,368.164,-895.020,0
3.246,681.152,562.012,-545.898,-577.148,0
3.250,995.605,979.492,-1000.000,-1000.000,0
3.254,-662.109,-611.816,-336.914,579.102,0
3.258,-1000.000,-1000.000,346.680,-780.273,0
3.262,359.863,-119.141,-260.742,122.070,0
3.265,-883.301,-972.656,-1000.000,-1000.000,0
3.269,-316.406,-230.469,-551.270,129.395,0
3.273,-1000.000,-1000.000,321.289,-791.992,0
3.277,-531.738,-757.812,39.062,728.516,0
3.281,986.816,816.406,-907.715,-855.469,0
3.285,529.297,625.000,-760.254,-768.066,0
3.289,-1000.000,-1000.000,227.051,947.754,0
3.293,-965.820,-972.168,241.211,958.496,0
3.297,654.785,665.527,-722.656,-701.660,0
3.301,-992.676,983.398,-1000.000,-1000.000,0
3.304,-729.980,-689.453,-253.418,625.488,0
3.308,-1000.000,-1000.000,285.156,-840.332,0
3.312,687.012,447.754,-477.539,-429.199,0
3.316,987.305,997.070,-1000.000,-1000.000,0
3.320,-646.484,-563.477,-437.988,476.074,0
3.324,-1000.000,-1000.000,296.875,-770.508,0
3.328,221.191,-345.703,-125.488,337.891,0
3.332,-860.352,993.164,-958.496,-1000.000,0
3.336,-207.031,-39.551,-691.895,-97.656,0
3.340,-1000.000,-1000.000,175.293,-836.426,0
3.344,-668.457,-843.750,108.887,815.918,0
3.347,906.738,735.840,-802.246,-772.949,0
3.351,736.816,779.297,-897.461,-888.184,0
3.355,-955.078,-956.055,-27.832,861.816,0
3.359,-996.094,-999.512,295.410,982.910,0
3.363,666.016,670.898,-625.977,-711.914,0
3.367,-988.281,991.211,-1000.000,-1000.000,0
3.371,-693.359,-646.484,-317.871,611.816,0
3.375,-1000.000,-1000.000,335.449,-813.965,0
3.379,583.984,308.594,-307.617,-312.012,0
3.383,-963.379,-970.215,-1000.000,-1000.000,0
3.387,-534.180,-470.703,-510.742,370.605,0
3.390,-1000.000,-1000.000,342.285,-774.414,0
3.394,-88.379,-553.711,-49.316,547.852,0
3.398,-895.508,934.570,-955.566,-981.934,0
3.402,45.898,193.848,-729.980,-349.609,0
3.406,-1000.000,-1000.000,265.625,-904.297,0
3.410,-780.273,-907.715,195.801,901.855,0
3.414,819.824,678.711,-840.820,-687.500,0
3.418,855.469,883.301,-898.438,-979.980,0
3.422,-874.023,-859.863,83.984,762.695,0
3.426,-1000.000,-1000.000,293.945,-955.078,0
3.430,675.781,625.000,-636.230,-644.043,0
3.433,-998.535,983.398,-1000.000,-916.992,0
3.437,-672.363,-625.977,-320.801,627.930,0
3.441,-1000.000,-1000.000,307.129,-807.129,0
3.445,447.266,83.496,-361.328,-85.449,0
3.449,-918.457,-958.984,-1000.000,-1000.000,0
3.453,-424.805,-345.215,-518.066,252.930,0
3.457,-1000.000,-1000.000,293.457,-783.203,0
3.461,-329.102,-676.270,0.977,645.508,0
3.465,-944.336,878.418,-871.094,-926.758,0
3.469,332.520,435.059,-741.211,-615.234,0
3.473,-1000.000,-1000.000,100.586,-990.234,0
3.476,-883.789,-947.266,134.766,934.082,0
3.480,738.770,662.598,-765.137,-687.988,0
3.484,944.824,948.242,-978.516,-1000.000,0
3.488,-795.898,-760.742,-154.297,641.113,0
3.492,-1000.000,-1000.000,315.918,-875.000,0
3.496,683.594,538.574,-544.434,-542.969,0
3.500,991.699,978.516,-1000.000,-1000.000,0
3.504,-653.320,-608.398,-388.672,577.637,0
3.508,-1000.000,-1000.000,343.262,-778.809,0
3.512,306.152,-167.480,-62.012,122.070,0
3.516,-881.836,-973.633,-954.102,-1000.000,0
3.519,-316.895,-209.961,-655.762,136.230,0
3.523,-1000.000,-1000.000,298.828,-797.363,0
3.527,-500.000,-671.387,81.543,640.137,0
3.531,991.211,838.379,-883.789,-871.094,0
3.535,573.730,629.883,-863.281,-787.598,0
3.539,-1000.000,-1000.000,68.848,915.039,0
3.543,-974.121,-978.027,335.449,968.262,0
3.547,654.297,666.504,-663.086,-704.102,0
3.551,-979.980,985.352,-1000.000,-1000.000,0
3.555,-705.566,-680.176,-175.293,625.488,0
3.559,-1000.000,-1000.000,321.777,-840.332,0
3.562,669.434,424.805,-536.133,-429.199,0
3.566,979.980,997.070,-1000.000,-1000.000,0
3.570,-630.859,-555.664,-384.766,476.562,0
3.574,-1000.000,-1000.000,332.031,-773.438,0
3.578,61.035,-407.227,-154.785,342.773,0
3.582,-883.789,979.492,-961.914,-1000.000,0
3.586,-168.945,-16.602,-714.844,-141.602,0
3.590,-1000.000,-1000.000,174.805,-860.840,0
3.594,-590.820,-757.324,82.031,750.000,0
3.598,921.387,754.395,-850.586,-770.996,0
3.601,751.465,789.062,-852.051,-895.508,0
3.605,-929.199,-930.664,-14.160,837.402,0
3.609,-1000.000,-1000.000,220.215,990.234,0
3.613,668.945,664.551,-650.391,-712.891,0
3.617,-992.188,989.258,-1000.000,-1000.000,0
3.621,-684.570,-641.602,-313.965,611.816,0
3.625,-1000.000,-1000.000,313.965,-813.965,0
3.629,541.504,268.555,-359.863,-312.012,0
3.633,-963.379,-970.215,-1000.000,-1000.000,0
3.637,-529.297,-457.520,-514.160,371.582,0
3.641,-1000.000,-1000.000,299.316,-779.785,0
3.644,-160.645,-575.684,-6.836,557.617,0
3.648,-903.320,929.199,-877.441,-981.445,0
3.652,170.898,252.441,-770.996,-437.988,0
3.656,-1000.000,-1000.000,113.281,-934.082,0
3.660,-799.805,-921.387,195.312,915.039,0
3.664,821.777,673.828,-774.902,-691.895,0
3.668,862.305,887.207,-968.262,-987.793,0
3.672,-866.699,-850.586,-79.102,742.676,0
3.676,-1000.000,-1000.000,336.426,-937.012,0
3.680,677.246,606.934,-581.055,-631.836,0
3.684,998.047,983.398,-1000.000,-1000.000,0
3.687,-666.016,-622.559,-323.730,593.750,0
3.691,-1000.000,-1000.000,411.133,-790.527,0
3.695,412.109,46.875,-229.492,-93.750,0
3.699,-920.410,-961.914,-1000.000,-1000.000,0
3.703,-419.434,-330.566,-548.828,254.883,0
3.707,-1000.000,-1000.000,316.406,-794.434,0
3.711,-395.996,-692.383,6.348,681.152,0
3.715,-965.820,867.188,-918.457,-896.484,0
3.719,380.371,463.379,-781.738,-733.398,0
3.723,-1000.000,-1000.000,144.043,963.379,0
3.727,-888.184,-950.684,150.879,953.125,0
3.730,740.723,663.086,-770.508,-696.777,0
3.734,948.242,952.637,-948.242,-1000.000,0
3.738,-791.016,-752.441,-166.016,641.113,0
3.742,-1000.000,-1000.000,257.324,-875.000,0
3.746,683.594,530.762,-541.504,-542.969,0
3.750,991.699,978.027,-1000.000,-1000.000,0
3.754,-654.297,-606.934,-421.875,578.613,0
3.758,-1000.000,-1000.000,237.793,-788.086,0
3.762,307.129,-179.199,-263.184,150.391,0
3.766,-882.324,-982.910,-986.816,-1000.000,0
3.770,-300.781,-204.590,-684.570,-17.578,0
3.773,-1000.000,-1000.000,133.789,-837.402,0
3.777,-579.102,-773.926,25.879,807.129,0
3.781,967.285,800.781,-854.004,-789.062,0
3.785,672.852,675.293,-850.586,-839.355,0
3.789,-997.559,-1000.000,-29.297,918.457,0
3.793,-975.098,-967.773,214.844,959.961,0
3.797,668.945,676.270,-654.785,-714.355,0
3.801,730.469,698.730,-909.180,-738.770,0
3.805,-833.984,-799.805,-247.559,750.000,0
3.809,-1000.000,-1000.000,291.016,-893.555,0
3.813,666.504,399.414,-234.863,-402.832,0
3.816,984.863,-995.605,-976.074,-1000.000,0
3.820,-631.836,-553.711,-517.578,456.543,0
3.824,-1000.000,-1000.000,275.879,-783.203,0
3.828,64.453,-421.387,-99.609,479.004,0
3.832,-880.859,968.262,-938.477,-1000.000,0
3.836,-101.562,-8.301,-720.703,-312.012,0
3.840,-1000.000,-1000.000,190.918,-900.391,0
3.844,-687.012,-854.980,85.449,903.320,0
3.848,897.949,720.703,-848.633,-698.730,0
3.852,773.926,810.547,-897.949,-926.758,0
3.856,-928.711,-933.594,-41.016,837.402,0
3.859,-1000.000,-1000.000,271.973,990.723,0
3.863,669.434,664.062,-613.281,-714.355,0
3.867,-991.211,988.281,-1000.000,-1000.000,0
3.871,-687.012,-640.137,-255.371,609.375,0
3.875,-1000.000,-1000.000,317.383,-812.988,0
3.879,549.805,250.977,-375.488,-261.719,0
3.883,-958.984,-968.750,-1000.000,-1000.000,0
3.887,-519.043,-447.266,-447.266,309.082,0
3.891,-1000.000,-1000.000,314.941,-780.273,0
3.895,-157.715,-581.055,-63.477,616.211,0
3.899,-900.391,920.898,-903.320,-940.918,0
3.902,22.949,154.297,-700.195,-337.891,0
3.906,-1000.000,-1000.000,121.094,-882.812,0
3.910,-773.438,-903.809,109.863,893.555,0
3.914,809.082,663.086,-772.461,-682.129,0
3.918,870.117,902.344,-949.707,-991.211,0
3.922,-863.770,-837.402,-129.395,742.188,0
3.926,-1000.000,-1000.000,287.109,-937.012,0
3.930,677.734,604.980,-544.434,-632.812,0
3.934,998.535,981.934,-995.605,-1000.000,0
3.938,-667.480,-621.094,-404.297,590.332,0
3.941,-1000.000,-1000.000,228.027,-792.480,0
3.945,404.785,23.926,-272.949,-2.441,0
3.949,-898.926,-960.938,-981.445,-1000.000,0
3.953,-369.141,-313.477,-646.484,146.973,0
3.957,-1000.000,-1000.000,190.430,-800.293,0
3.961,-403.809,-698.730,26.855,731.445,0
3.965,-955.566,869.629,-885.254,-865.234,0
3.969,454.102,492.188,-816.895,-738.281,0
3.973,-1000.000,-1000.000,83.008,964.355,0
3.977,-801.270,-855.469,258.789,853.516,0
3.981,780.762,695.801,-688.965,-730.957,0
3.984,930.664,950.195,-1000.000,-1000.000,0
3.988,-782.715,-721.680,-217.773,634.766,0
3.992,-1000.000,-1000.000,268.066,-876.465,0
3.996,685.059,511.719,-532.227,-531.738,0
4.000,988.281,978.516,-1000.000,-1000.000,0
4.004,-649.414,-602.051,-396.973,520.020,0
4.008,-1000.000,-1000.000,368.652,-780.273,0
4.012,249.512,-229.980,-184.082,195.801,0
4.016,-856.934,-985.840,-994.141,-1000.000,0
4.020,-217.285,-146.484,-589.355,-33.691,0
4.024,-1000.000,-1000.000,310.059,-833.008,0
4.027,-608.887,-796.875,53.711,809.570,0
4.031,960.449,781.250,-893.066,-778.809,0
4.035,676.758,716.309,-795.898,-741.211,0
4.039,-986.816,-990.723,96.191,939.941,0
4.043,-986.816,-987.305,235.352,955.566,0
4.047,662.109,669.922,-698.242,-697.754,0
4.051,-986.816,988.770,-968.750,-1000.000,0
4.055,-694.336,-664.551,-161.621,625.977,0
4.059,-1000.000,-1000.000,312.012,-842.285,0
4.063,606.934,385.254,-477.051,-424.805,0
4.067,-994.629,-991.699,-1000.000,-1000.000,0
4.070,-600.586,-531.250,-463.867,447.754,0
4.074,-1000.000,-1000.000,290.527,-782.227,0
4.078,23.926,-456.055,-81.055,477.539,0
4.082,-857.910,977.051,-950.195,-1000.000,0
4.086,4.883,62.988,-722.168,-301.758,0
4.090,-1000.000,-1000.000,181.641,-899.414,0
4.094,-515.137,-685.547,64.453,707.031,0
4.098,973.633,777.832,-840.332,-774.414,0
4.102,740.723,794.434,-915.527,-893.066,0
4.106,-913.574,-901.367,-63.965,821.777,0
4.110,-1000.000,-1000.000,302.734,996.094,0
4.113,670.410,649.902,-600.098,-713.379,0
4.117,-995.117,988.770,-1000.000,-1000.000,0
4.121,-680.176,-639.648,-340.332,613.770,0
4.125,-1000.000,-1000.000,341.309,-820.312,0
4.129,490.234,225.586,-283.203,-297.852,0
4.133,-917.969,-949.219,-1000.000,-1000.000,0
4.137,-442.383,-399.902,-523.438,293.945,0
4.141,-1000.000,-1000.000,365.234,-792.480,0
4.145,-192.871,-610.840,-10.742,633.789,0
4.149,-901.855,916.016,-942.383,-936.035,0
4.153,238.770,334.961,-741.211,-535.156,0
4.156,-1000.000,-1000.000,217.773,-958.008,0
4.160,-808.594,-930.664,236.816,926.758,0
4.164,826.172,673.340,-776.855,-698.242,0
4.168,864.258,912.598,-933.594,-985.840,0
4.172,-863.770,-815.918,82.520,742.188,0
4.176,-1000.000,-1000.000,339.844,-937.012,0
4.180,678.711,584.961,-619.629,-633.301,0
4.184,995.605,981.934,-1000.000,-1000.000,0
4.188,-667.969,-623.047,-341.309,591.309,0
4.192,-1000.000,-1000.000,321.289,-793.457,0
4.196,359.375,-27.832,-287.109,41.992,0
4.199,-977.539,941.406,-1000.000,-997.070,0
4.203,-355.957,-308.594,-555.176,190.430,0
4.207,-1000.000,-1000.000,306.152,-812.988,0
4.211,-413.086,-729.980,-0.977,737.793,0
4.215,-955.078,850.098,-884.277,-861.328,0
4.219,455.566,547.363,-765.625,-744.629,0
4.223,-1000.000,-1000.000,88.379,965.820,0
4.227,-946.777,-961.914,182.617,953.125,0
4.231,686.523,664.062,-738.281,-697.754,0
4.235,957.031,969.238,-997.070,-1000.000,0
4.238,-805.176,-730.469,-194.824,650.391,0
4.242,-1000.000,-1000.000,292.969,-879.883,0
4.246,693.359,488.770,-536.133,-512.695,0
4.250,698.730,701.172,-964.844,-757.324,0
4.254,-773.438,-710.449,-368.164,632.324,0
4.258,-1000.000,-1000.000,310.059,-824.219,0
4.262,222.656,-266.602,-75.195,322.754,0
4.266,-846.191,-972.168,-955.078,-1000.000,0
4.270,-208.496,-100.098,-677.734,7.324,0
4.274,-1000.000,-1000.000,261.719,-804.688,0
4.278,-609.375,-812.012,183.594,802.734,0
4.281,960.938,771.973,-825.195,-774.902,0
4.285,676.758,727.539,-906.738,-842.773,0
4.289,-986.816,-985.840,43.457,906.250,0
4.293,-986.816,-988.770,282.715,971.680,0
4.297,662.109,670.898,-672.852,-707.031,0
4.301,-987.793,989.746,-1000.000,-1000.000,0
4.305,-692.871,-658.203,-205.078,619.141,0
4.309,-1000.000,-1000.000,334.473,-829.102,0
4.313,585.938,362.793,-505.371,-365.234,0
4.317,-965.820,-980.957,-1000.000,-1000.000,0
4.321,-557.617,-510.254,-388.672,393.555,0
4.324,-1000.000,-1000.000,366.211,-777.344,0
4.328,24.414,-479.980,-95.703,545.898,0
4.332,-866.211,961.426,-937.012,-985.352,0
4.336,14.648,115.234,-690.918,-317.383,0
4.340,-1000.000,-1000.000,173.828,-897.461,0
4.344,-722.168,-889.648,103.027,802.246,0
4.348,887.695,695.312,-826.660,-732.422,0
4.352,776.855,849.121,-874.023,-910.645,0
4.356,-930.176,-896.484,-15.625,829.590,0
4.360,-1000.000,-1000.000,272.461,993.164,0
4.364,670.898,643.555,-611.328,-715.820,0
4.367,-996.582,986.816,-1000.000,-1000.000,0
4.371,-677.246,-634.277,-333.008,597.656,0
4.375,-1000.000,-1000.000,307.129,-797.852,0
4.379,475.098,182.617,-324.219,-142.090,0
4.383,-916.504,-954.102,-1000.000,-1000.000,0
4.387,-440.918,-392.090,-433.105,278.320,0
4.391,-1000.000,-1000.000,376.953,-783.691,0
4.395,-192.871,-636.719,-18.066,642.090,0
4.399,-901.855,900.391,-904.785,-927.246,0
4.403,236.328,355.469,-788.086,-537.598,0
4.407,-1000.000,-1000.000,100.586,-957.520,0
4.410,-841.797,-937.012,260.742,926.758,0
4.414,790.039,666.992,-694.824,-699.219,1
