timestamps,TP9,AF7,AF8,TP10
1613698910.954,-287.598,-54.199,-37.598,-112.793
1613698910.958,150.391,-49.805,-36.133,36.621
1613698910.962,291.992,-45.898,-34.668,90.820
1613698910.966,-146.973,-44.922,-32.227,-53.223
1613698910.970,-347.656,-45.898,-47.852,-139.648
1613698910.974,20.996,-41.016,-61.035,-16.602
1613698910.978,326.172,-34.180,-57.617,101.562
1613698910.981,-14.160,-38.086,-49.805,-15.137
1613698910.985,-365.234,-38.574,-36.133,-145.996
1613698910.989,-112.793,-36.621,-30.273,-70.312
1613698910.993,339.355,-31.738,-31.738,101.562
1613698910.997,139.648,-33.203,-29.785,51.758
1613698910.999,-330.566,-36.133,-24.414,-136.719
1613698911.003,-237.305,-43.457,-27.344,-121.582
1613698911.007,223.145,-38.574,-26.367,44.922
1613698911.011,228.027,-24.902,-25.879,64.453
1613698911.015,-229.492,-33.203,-29.297,-90.820
1613698911.019,-305.664,-38.574,-26.367,-122.070
1613698911.023,125.977,-35.156,-21.973,26.855
1613698911.026,306.152,-35.156,-17.090,101.074
1613698911.030,-107.910,-31.738,-16.602,-32.715
1613698911.034,-333.008,-29.785,-20.508,-131.836
1613698911.038,5.371,-31.738,-17.090,-22.461
1613698911.042,345.215,-31.738,-15.137,117.676
1613698911.044,44.922,-26.367,-17.090,25.391
1613698911.048,-327.148,-30.762,-13.672,-121.582
1613698911.052,-130.371,-36.621,-11.719,-66.895
1613698911.056,296.875,-36.621,-18.555,86.426
1613698911.060,153.809,-38.086,-27.832,46.875
1613698911.064,-296.387,-36.621,-29.297,-120.117
1613698911.068,-249.023,-39.062,-27.344,-118.164
1613698911.071,205.566,-37.598,-24.902,42.480
1613698911.075,258.789,-30.273,-21.973,76.172
1613698911.079,-193.359,-37.109,-26.855,-78.613
1613698911.083,-310.547,-44.922,-32.715,-137.207
1613698911.087,91.309,-46.875,-31.250,0.977
1613698911.106,305.176,-44.434,-26.855,94.238
1613698911.110,-84.473,-39.062,-22.461,-34.180
1613698911.114,-356.934,-40.527,-22.461,-142.578
1613698911.118,-44.922,-41.016,-25.391,-42.480
1613698911.122,319.336,-41.016,-27.344,88.867
1613698911.126,49.316,-38.574,-24.414,9.766
1613698911.130,-344.727,-35.156,-20.508,-125.488
1613698911.133,-178.711,-31.250,-17.578,-73.730
1613698911.137,282.227,-28.320,-16.602,90.820
1613698911.141,177.734,-27.832,-16.602,67.383
1613698911.145,-298.340,-24.414,-15.625,-88.867
1613698911.149,-282.227,-25.879,-19.531,-95.215
1613698911.134,171.387,-28.320,-27.344,40.039
1613698911.138,260.254,-25.879,-29.785,85.938
1613698911.142,-189.941,-29.785,-29.785,-61.035
1613698911.146,-345.215,-32.715,-33.691,-136.719
1613698911.150,50.293,-31.738,-36.133,-7.324
1613698911.154,314.941,-37.598,-36.133,98.633
1613698911.158,-52.734,-42.480,-35.156,-24.414
1613698911.161,-359.863,-39.551,-35.645,-145.020
1613698911.165,-76.660,-35.645,-32.227,-55.176
1613698911.169,325.684,-37.598,-30.762,91.797
1613698911.173,89.355,-36.133,-33.691,33.203
1613698911.177,-344.238,-34.180,-38.574,-115.234
1613698911.179,-213.867,-32.715,-45.410,-100.098
1613698911.183,240.234,-41.504,-44.922,48.340
1613698911.187,186.035,-49.805,-43.945,50.781
1613698911.191,-274.414,-50.293,-41.016,-104.492
1613698911.195,-308.594,-47.363,-33.691,-129.883
1613698911.199,133.301,-44.922,-31.738,29.785
1613698911.203,277.832,-38.574,-38.086,90.332
1613698911.206,-153.320,-42.969,-42.969,-67.871
1613698911.210,-355.957,-50.781,-44.922,-153.320
1613698911.214,1.465,-47.852,-46.875,-32.715
1613698911.218,299.805,-47.363,-41.992,84.473
1613698911.222,-32.227,-45.898,-35.156,-16.602
1613698911.239,-367.676,-49.316,-40.039,-139.160
1613698911.243,-135.742,-52.246,-43.945,-64.941
1613698911.247,282.715,-49.805,-41.504,83.496
1613698911.251,102.539,-48.828,-41.504,23.438
1613698911.255,-341.309,-51.270,-42.480,-134.766
1613698911.259,-257.324,-61.035,-50.781,-127.930
1613698911.263,210.938,-57.129,-51.270,29.785
1613698911.266,212.402,-54.199,-42.969,53.223
1613698911.270,-257.324,-57.617,-45.410,-102.051
1613698911.274,-326.172,-51.758,-41.504,-138.184
1613698911.278,103.027,-50.293,-39.062,4.883
1613698911.282,282.227,-49.805,-38.574,77.637
1613698911.284,-137.207,-46.875,-37.109,-51.758
1613698911.288,-369.629,-47.852,-38.574,-151.855
1613698911.292,-27.344,-50.781,-38.086,-56.152
1613698911.296,309.082,-49.805,-39.062,75.684
1613698911.300,-2.441,-59.082,-53.223,-24.414
1613698911.304,-379.883,-71.289,-60.547,-166.504
1613698911.308,-165.039,-66.895,-53.223,-101.562
1613698911.311,273.438,-62.012,-49.805,65.918
1613698911.315,134.277,-59.570,-44.922,46.875
1613698911.319,-316.406,-57.617,-49.805,-115.723
1613698911.323,-265.625,-52.246,-50.293,-114.746
1613698911.327,192.871,-51.758,-47.852,36.133
1613698911.330,219.238,-63.477,-62.012,56.152
1613698911.334,-237.305,-61.035,-57.129,-92.285
1613698911.338,-335.449,-53.711,-46.875,-147.461
1613698911.342,81.543,-55.176,-47.852,-10.254
1613698911.346,306.152,-49.805,-38.086,87.402
1613698911.350,-83.008,-45.410,-34.180,-35.156
1613698911.354,-349.609,-50.781,-40.527,-138.672
1613698911.357,-47.852,-55.176,-45.898,-50.781
1613698911.361,315.430,-51.758,-41.016,92.285
1613698911.365,53.223,-52.734,-35.156,14.160
1613698911.369,-350.098,-58.594,-38.574,-140.137
1613698911.373,-181.152,-60.547,-39.062,-89.355
1613698911.374,273.438,-58.594,-38.086,74.219
1613698911.378,173.828,-61.035,-37.109,55.176
1613698911.382,-285.645,-60.547,-36.621,-113.281
1613698911.386,-278.320,-58.105,-38.574,-134.766
1613698911.390,174.316,-56.152,-41.504,20.996
1613698911.394,250.977,-53.711,-41.016,64.453
1613698911.398,-200.195,-53.711,-34.668,-82.031
1613698911.401,-338.379,-53.711,-34.668,-132.812
1613698911.405,48.340,-54.688,-39.551,-3.906
1613698911.409,318.848,-54.199,-51.270,94.727
1613698911.413,-39.551,-52.734,-66.406,-16.602
1613698911.417,-348.145,-51.270,-71.289,-133.789
1613698911.419,-77.637,-48.828,-71.777,-64.453
1613698911.423,324.219,-45.410,-62.988,83.496
1613698911.427,105.469,-46.387,-44.922,34.668
1613698911.431,-320.312,-50.293,-45.410,-125.488
1613698911.435,-200.195,-45.410,-51.270,-107.422
1613698911.439,256.836,-41.992,-42.969,61.035
1613698911.443,209.473,-41.504,-41.504,64.941
1613698911.446,-256.836,-45.410,-41.504,-96.680
1613698911.450,-292.969,-46.387,-41.504,-127.441
1613698911.454,148.926,-43.457,-43.945,15.137
1613698911.458,289.062,-48.828,-40.527,80.078
1613698911.462,-146.973,-46.387,-39.062,-57.617
1613698911.479,-341.309,-48.340,-44.434,-146.973
1613698911.483,34.180,-48.340,-40.527,-23.926
1613698911.487,330.078,-41.992,-35.156,106.445
1613698911.491,-11.230,-37.109,-37.109,3.418
1613698911.495,-352.539,-33.203,-40.527,-136.719
1613698911.499,-114.746,-36.621,-38.574,-66.895
1613698911.503,305.176,-38.086,-34.180,92.285
1613698911.506,119.629,-40.039,-39.062,43.945
1613698911.510,-316.406,-46.875,-39.062,-116.211
1613698911.514,-226.562,-48.828,-37.109,-105.469
1613698911.518,232.910,-48.340,-33.203,56.152
1613698911.522,223.145,-48.828,-31.738,71.289
1613698911.524,-235.352,-39.062,-33.203,-91.309
1613698911.528,-305.664,-33.691,-31.250,-129.395
1613698911.532,107.910,-41.016,-31.738,20.020
1613698911.536,286.621,-39.551,-31.738,97.168
1613698911.540,-116.211,-33.691,-26.855,-36.133
1613698911.544,-353.516,-43.945,-34.180,-131.836
1613698911.548,-31.250,-56.641,-45.898,-35.645
1613698911.551,317.383,-52.246,-38.574,100.586
1613698911.555,24.414,-41.504,-30.762,13.672
1613698911.559,-351.074,-40.527,-28.320,-122.559
1613698911.563,-147.949,-41.504,-33.203,-65.430
1613698911.567,292.480,-37.598,-35.156,97.656
1613698911.554,145.020,-39.062,-33.691,64.941
1613698911.558,-296.387,-39.551,-34.180,-91.309
1613698911.562,-238.281,-36.621,-38.574,-81.055
1613698911.566,200.684,-37.109,-52.734,58.105
1613698911.570,250.000,-41.016,-60.059,84.961
1613698911.574,-216.309,-44.434,-61.523,-69.336
1613698911.578,-336.426,-46.387,-60.547,-124.023
1613698911.581,81.543,-46.387,-59.082,1.953
1613698911.585,307.617,-50.293,-57.617,92.285
1613698911.589,-91.309,-54.199,-56.152,-24.414
1613698911.593,-375.488,-52.734,-57.129,-143.555
1613698911.597,-58.105,-49.805,-54.199,-53.223
1613698911.629,315.918,-46.387,-52.246,86.426
1613698911.633,43.457,-43.457,-52.734,12.207
1613698911.637,-353.516,-41.992,-48.828,-134.766
1613698911.641,-179.688,-47.363,-50.293,-98.633
1613698911.645,247.070,-48.828,-53.223,60.547
1613698911.649,147.949,-48.340,-45.898,61.523
1613698911.653,-280.273,-47.852,-46.875,-87.891
1613698911.656,-283.691,-45.898,-54.688,-122.070
1613698911.660,160.645,-43.945,-52.734,21.973
1613698911.664,246.582,-43.945,-51.270,74.707
1613698911.668,-213.379,-46.387,-50.293,-77.148
1613698911.672,-360.840,-49.316,-47.363,-148.438
1613698911.659,44.434,-53.223,-40.039,-6.348
1613698911.663,318.848,-43.945,-37.109,105.469
1613698911.667,-45.898,-34.668,-40.039,-14.648
1613698911.671,-349.609,-42.480,-44.434,-128.906
1613698911.675,-74.707,-44.922,-44.434,-45.898
1613698911.679,319.824,-36.621,-34.668,99.609
1613698911.683,103.027,-34.180,-26.855,41.504
1613698911.686,-314.941,-40.039,-30.762,-112.793
1613698911.690,-192.383,-43.945,-37.598,-84.473
1613698911.694,253.906,-46.875,-43.457,63.965
1613698911.698,204.102,-46.387,-43.945,56.641
1613698911.702,-257.812,-42.480,-43.945,-100.586
1613698911.704,-302.246,-49.316,-40.039,-125.000
1613698911.708,137.695,-54.688,-33.691,29.297
1613698911.712,280.762,-53.223,-32.715,85.449
1613698911.716,-151.367,-48.340,-28.809,-56.641
1613698911.720,-346.191,-44.434,-19.531,-125.488
1613698911.724,12.695,-48.828,-12.695,-17.578
1613698911.728,313.477,-48.828,-12.695,94.727
1613698911.731,-20.020,-44.922,-7.324,-1.953
1613698911.735,-362.793,-44.434,-8.301,-136.719
1613698911.739,-113.770,-45.410,-12.695,-77.637
1613698911.743,298.340,-47.363,-13.184,64.453
1613698911.747,108.398,-47.852,-10.254,23.438
1613698911.779,-322.754,-45.898,-4.883,-119.629
1613698911.783,-237.305,-45.898,-8.789,-108.887
1613698911.787,225.098,-44.922,-9.277,50.293
1613698911.791,224.609,-44.434,-7.324,73.730
1613698911.795,-248.535,-56.641,-16.113,-87.402
1613698911.799,-322.266,-57.129,-17.090,-126.953
1613698911.803,106.934,-47.363,-10.742,15.625
1613698911.806,289.551,-45.410,-9.277,93.750
1613698911.810,-122.070,-43.945,-11.230,-39.551
1613698911.814,-355.469,-45.410,-15.625,-143.066
1613698911.818,-13.184,-47.363,-16.602,-38.574
1613698911.822,320.801,-41.504,-14.160,98.145
1613698911.794,12.695,-41.016,-16.602,-2.930
1613698911.798,-354.004,-46.875,-20.020,-147.949
1613698911.802,-145.020,-43.457,-20.996,-82.031
1613698911.806,287.109,-45.410,-23.926,74.219
1613698911.810,140.625,-44.434,-21.973,35.645
1613698911.814,-299.805,-33.691,-20.508,-113.281
1613698911.818,-245.117,-31.738,-19.043,-105.469
1613698911.821,204.590,-34.668,-23.926,43.457
1613698911.825,258.789,-39.062,-26.855,71.289
1613698911.829,-194.336,-39.551,-16.602,-76.660
1613698911.833,-314.941,-40.039,-16.113,-128.418
1613698911.837,96.680,-41.504,-22.949,0.977
1613698911.839,319.336,-41.016,-23.926,83.496
1613698911.843,-76.660,-43.457,-24.414,-41.016
1613698911.847,-355.957,-40.527,-26.855,-140.625
1613698911.851,-44.434,-39.551,-24.414,-42.969
1613698911.855,333.496,-41.504,-29.785,96.191
1613698911.859,60.059,-42.480,-31.738,13.184
1613698911.863,-345.215,-41.016,-28.809,-129.883
1613698911.866,-184.570,-43.457,-34.668,-84.961
1613698911.870,259.766,-51.758,-41.504,62.500
1613698911.874,166.504,-52.246,-53.223,51.270
1613698911.878,-295.410,-55.176,-65.918,-104.980
1613698911.882,-294.434,-55.664,-71.777,-134.277
1613698911.885,163.086,-55.176,-67.871,14.160
1613698911.889,258.789,-55.176,-53.223,70.312
1613698911.893,-200.195,-50.293,-40.039,-84.473
1613698911.897,-354.492,-47.852,-35.645,-158.203
1613698911.901,43.945,-48.828,-39.062,-27.832
1613698911.905,311.035,-53.223,-38.086,81.055
1613698911.909,-53.711,-51.758,-35.156,-33.691
1613698911.912,-358.398,-47.363,-37.109,-156.250
1613698911.916,-83.984,-50.781,-33.203,-76.660
1613698911.920,310.059,-58.594,-34.180,66.406
1613698911.924,84.473,-59.570,-37.109,8.789
1613698911.928,-336.914,-52.734,-35.645,-139.160
1613698911.961,-205.566,-49.316,-34.180,-108.398
1613698911.965,250.000,-46.387,-30.273,55.664
1613698911.969,196.777,-45.410,-35.645,49.805
1613698911.973,-268.555,-48.340,-35.645,-108.398
1613698911.977,-282.715,-48.828,-33.203,-125.488
1613698911.981,162.598,-45.898,-35.645,23.438
1613698911.985,278.809,-40.039,-35.645,77.148
1613698911.988,-148.926,-38.086,-35.645,-59.082
1613698911.992,-343.262,-42.969,-37.598,-134.766
1613698911.996,16.602,-41.504,-40.527,-21.484
1613698912.000,311.035,-41.016,-42.969,89.355
1613698912.004,-20.020,-41.504,-41.016,-17.090
1613698911.989,-356.934,-41.504,-35.645,-143.555
1613698911.993,-113.281,-39.551,-35.645,-73.730
1613698911.997,299.316,-40.527,-36.621,78.125
1613698912.001,114.746,-43.457,-34.180,28.809
1613698912.005,-314.453,-46.387,-36.621,-125.488
1613698912.009,-222.656,-43.945,-33.691,-99.121
1613698912.013,241.699,-38.086,-27.344,62.988
1613698912.016,236.816,-46.387,-32.715,75.195
1613698912.020,-240.723,-50.781,-38.086,-78.125
1613698912.024,-319.336,-46.387,-38.574,-119.629
1613698912.028,119.141,-43.457,-38.574,18.066
1613698912.032,303.223,-40.039,-37.598,93.750
1613698912.049,-116.699,-38.574,-37.109,-45.410
1613698912.053,-360.352,-47.363,-33.691,-136.230
1613698912.057,-16.113,-48.828,-36.133,-30.762
1613698912.061,332.520,-46.387,-43.457,88.379
1613698912.065,26.855,-49.316,-38.086,0.977
1613698912.069,-344.238,-55.176,-37.109,-128.906
1613698912.073,-134.766,-56.641,-39.551,-64.453
1613698912.076,302.246,-58.105,-35.156,87.402
1613698912.080,163.086,-58.594,-33.203,58.594
1613698912.084,-284.668,-53.711,-38.086,-92.773
1613698912.088,-237.793,-52.734,-34.668,-100.098
1613698912.092,212.402,-48.340,-25.879,53.711
1613698912.079,256.836,-47.852,-23.926,89.844
1613698912.083,-197.266,-50.293,-25.879,-61.523
1613698912.087,-312.012,-52.734,-33.691,-122.070
1613698912.091,97.168,-53.711,-35.645,12.695
1613698912.095,326.172,-44.922,-34.180,113.281
1613698912.099,-69.336,-48.828,-36.621,-15.137
1613698912.103,-352.539,-53.711,-37.109,-124.023
1613698912.106,-39.551,-45.410,-38.574,-31.738
1613698912.110,330.566,-44.434,-42.969,101.074
1613698912.114,60.547,-46.875,-46.875,24.414
1613698912.118,-345.703,-46.387,-44.922,-120.605
1613698912.122,-170.898,-41.992,-42.480,-76.660
1613698912.155,278.809,-44.434,-39.551,82.031
1613698912.159,169.922,-51.270,-37.109,61.523
1613698912.163,-284.668,-51.758,-40.039,-104.492
1613698912.167,-273.926,-52.246,-38.086,-113.770
1613698912.171,177.246,-54.688,-39.551,44.434
1613698912.175,271.973,-48.340,-44.434,102.051
1613698912.179,-166.016,-40.527,-39.062,-42.969
1613698912.182,-326.660,-43.945,-33.691,-117.188
1613698912.186,49.805,-44.922,-35.156,-0.488
1613698912.190,312.500,-46.387,-38.086,96.191
1613698912.194,-60.059,-43.945,-35.645,-12.207
1613698912.198,-367.188,-39.062,-35.156,-130.859
1613698912.216,-82.520,-43.457,-39.551,-48.828
1613698912.220,311.035,-46.387,-43.457,86.914
1613698912.224,82.031,-47.363,-43.945,12.207
1613698912.228,-351.074,-48.340,-44.922,-141.113
1613698912.232,-192.383,-47.363,-44.922,-97.168
1613698912.236,285.645,-42.969,-38.086,67.871
1613698912.240,195.312,-41.992,-33.691,49.805
1613698912.243,-270.508,-41.992,-32.227,-104.492
1613698912.247,-295.410,-41.992,-32.715,-130.859
1613698912.251,144.043,-48.828,-33.691,16.602
1613698912.255,235.840,-50.293,-29.297,66.895
1613698912.259,226.074,-40.527,-28.320,57.129
1613698912.222,217.285,-37.109,-25.391,67.871
1613698912.226,-220.703,-38.086,-23.926,-78.125
1613698912.230,-304.199,-44.922,-30.762,-133.301
1613698912.234,134.277,-42.480,-27.344,18.066
1613698912.238,306.641,-35.156,-18.066,102.539
1613698912.242,-120.605,-39.062,-23.926,-35.156
1613698912.246,-342.285,-40.527,-26.855,-132.812
1613698912.249,3.418,-46.387,-26.855,-25.879
1613698912.253,322.266,-49.316,-29.297,99.609
1613698912.257,-0.977,-46.387,-28.809,-3.418
1613698912.261,-360.840,-45.898,-30.273,-136.719
1613698912.265,-135.254,-50.781,-29.785,-75.195
1613698912.274,282.715,-53.223,-33.691,78.613
1613698912.278,117.676,-48.340,-38.574,43.945
1613698912.282,-310.547,-42.969,-37.109,-114.746
1613698912.286,-238.770,-42.480,-38.086,-113.281
1613698912.290,208.496,-48.828,-42.480,46.387
1613698912.294,236.328,-46.387,-39.551,74.707
1613698912.298,-211.426,-42.969,-39.062,-81.543
1613698912.301,-312.500,-44.922,-36.133,-135.254
1613698912.305,107.422,-45.410,-36.621,5.859
1613698912.309,311.035,-52.246,-41.016,90.820
1613698912.313,-110.840,-59.082,-42.969,-45.898
1613698912.317,-373.047,-56.641,-38.574,-146.973
1613698912.320,-34.668,-44.922,-36.133,-41.016
1613698912.324,326.172,-25.879,-28.809,89.355
1613698912.328,22.949,-20.508,-26.855,0.000
1613698912.332,-350.586,-28.320,-30.273,-130.859
1613698912.336,-146.484,-37.109,-29.297,-73.242
1613698912.340,286.621,-38.574,-35.156,81.055
1613698912.344,161.133,-37.598,-48.340,51.758
1613698912.347,-288.086,-47.363,-55.664,-95.215
1613698912.351,-255.859,-53.711,-53.711,-100.098
1613698912.355,203.125,-47.363,-52.246,48.340
1613698912.359,279.297,-41.016,-40.039,94.238
1613698912.363,-178.711,-44.922,-28.320,-62.012
1613698912.366,-328.125,-45.410,-32.227,-132.812
1613698912.370,75.195,-39.062,-26.855,2.930
1613698912.374,329.102,-40.527,-16.602,103.027
1613698912.378,-62.012,-41.504,-17.090,-23.926
1613698912.382,-344.727,-45.410,-20.996,-116.699
1613698912.386,-26.367,-51.758,-27.832,-16.602
1613698912.390,307.129,-42.480,-29.297,76.660
1613698912.393,39.551,-38.086,-26.855,2.441
1613698912.397,-334.473,-40.039,-24.902,-125.977
1613698912.401,-194.824,-39.062,-28.320,-103.516
1613698912.405,232.910,-42.480,-35.156,43.945
1613698912.409,166.016,-44.922,-37.598,38.086
1613698912.409,-285.645,-48.828,-36.133,-112.793
1613698912.413,-304.688,-48.340,-32.715,-130.859
1613698912.417,145.996,-44.922,-32.227,20.508
1613698912.421,278.320,-45.898,-28.809,81.543
1613698912.425,-160.645,-52.246,-29.297,-63.965
1613698912.429,-342.285,-55.664,-34.668,-135.742
1613698912.433,30.273,-50.293,-37.109,-4.883
1613698912.436,313.477,-55.664,-40.039,91.309
1613698912.440,-48.828,-68.848,-39.551,-26.855
1613698912.444,-377.441,-65.918,-39.551,-140.625
1613698912.448,-107.910,-58.594,-37.598,-64.453
1613698912.452,295.898,-56.641,-34.180,80.566
1613698912.454,90.820,-55.664,-32.227,22.949
1613698912.458,-323.730,-53.223,-25.391,-118.164
1613698912.462,-211.426,-51.270,-23.438,-90.332
1613698912.466,245.605,-51.270,-29.297,58.594
1613698912.470,222.168,-51.270,-35.156,61.523
1613698912.474,-240.234,-55.664,-36.621,-89.355
1613698912.478,-297.363,-56.641,-33.691,-119.141
1613698912.481,146.973,-52.246,-30.762,27.344
1613698912.485,316.406,-48.340,-24.902,104.980
1613698912.489,-126.465,-49.805,-24.414,-33.691
1613698912.493,-347.168,-50.293,-27.832,-123.535
1613698912.497,14.648,-50.781,-27.832,-11.719
1613698912.514,334.961,-43.945,-26.367,116.699
1613698912.518,6.348,-38.574,-26.367,25.879
1613698912.522,-347.656,-39.062,-23.438,-98.633
1613698912.526,-117.188,-39.062,-21.484,-41.016
1613698912.530,298.828,-39.062,-20.996,103.027
1613698912.534,139.160,-35.156,-27.344,60.059
1613698912.538,-283.203,-33.203,-29.297,-101.074
1613698912.541,-223.145,-34.180,-25.879,-96.680
1613698912.545,225.586,-38.574,-24.902,57.617
1613698912.549,256.348,-37.598,-23.438,87.402
1613698912.553,-202.148,-33.691,-25.391,-68.359
1613698912.557,-296.875,-31.738,-23.926,-110.352
1613698912.559,146.484,-28.809,-17.090,56.152
1613698912.563,338.867,-20.996,-19.043,129.395
1613698912.567,-82.520,-14.648,-25.391,-30.762
1613698912.571,-323.242,-14.160,-20.020,-123.535
1613698912.575,5.859,-14.648,-12.207,-20.508
1613698912.579,352.539,-16.113,-14.648,100.098
1613698912.583,54.688,-13.672,-16.602,11.230
1613698912.586,-322.266,-9.766,-14.160,-121.094
1613698912.590,-130.371,-10.254,-13.672,-60.547
1613698912.594,302.734,-15.625,-16.113,87.891
1613698912.598,184.082,-19.531,-16.113,62.988
1613698912.602,-264.648,-22.461,-18.555,-92.285
1613698912.605,-259.277,-36.133,-34.668,-117.676
1613698912.609,192.383,-42.480,-41.992,34.180
1613698912.613,279.297,-32.715,-27.344,91.309
1613698912.617,-173.340,-30.273,-15.625,-54.688
1613698912.621,-310.547,-33.691,-12.695,-116.211
1613698912.625,105.957,-30.273,-7.324,15.137
1613698912.629,360.352,-25.879,-2.930,117.676
1613698912.632,-36.621,-26.367,-1.953,-0.977
1613698912.636,-338.867,-23.926,-8.789,-108.398
1613698912.640,-38.574,-21.484,-14.648,-23.438
1613698912.644,344.238,-19.043,-11.719,109.863
1613698912.648,88.379,-11.719,-9.766,41.504
1613698912.650,-315.918,-14.648,-16.113,-106.445
1613698912.654,-165.039,-20.996,-20.508,-79.102
1613698912.658,276.367,-25.391,-23.438,74.707
1613698912.662,201.172,-24.414,-22.949,69.824
1613698912.666,-247.559,-20.996,-20.020,-87.402
1613698912.670,-245.117,-20.996,-15.137,-96.680
1613698912.674,189.453,-20.508,-13.672,45.898
1613698912.677,299.316,-19.531,-13.672,101.562
1613698912.681,-143.066,-16.602,-13.184,-38.086
1613698912.685,-325.195,-20.508,-29.785,-124.023
1613698912.689,62.500,-19.531,-46.875,0.488
1613698912.693,349.121,-18.066,-62.012,113.770
1613698912.709,-13.672,-20.996,-68.359,5.859
1613698912.713,-342.773,-17.578,-61.523,-112.305
1613698912.717,-73.242,-22.461,-44.434,-25.879
1613698912.721,329.102,-22.949,-32.227,120.605
1613698912.725,115.234,-21.484,-26.367,55.664
1613698912.729,-314.453,-25.391,-21.484,-100.098
1613698912.733,-204.102,-24.414,-26.855,-77.148
1613698912.736,250.977,-23.926,-20.508,93.750
1613698912.740,225.586,-25.391,-16.113,99.121
1613698912.744,-236.816,-27.344,-22.461,-71.289
1613698912.748,-294.434,-21.484,-17.090,-99.121
1613698912.752,147.461,-19.531,-17.090,49.805
1613698912.739,318.848,-21.973,-24.414,113.770
1613698912.743,-102.539,-16.113,-15.625,-26.855
1613698912.747,-332.520,-9.766,-2.441,-113.281
1613698912.751,22.461,-14.648,-4.883,-4.395
1613698912.755,356.445,-14.160,-9.766,117.188
1613698912.759,34.180,-11.230,-13.184,26.367
1613698912.763,-300.781,-14.648,-20.508,-90.820
1613698912.766,-86.426,-17.578,-17.090,-38.086
1613698912.770,302.734,-24.902,-9.277,88.379
1613698912.774,131.836,-23.926,-12.695,37.598
1613698912.778,-296.387,-14.648,-6.836,-98.633
1613698912.782,-216.309,-15.137,3.418,-74.219
1613698912.814,238.281,-23.926,-5.371,70.801
1613698912.818,250.488,-28.320,-8.301,81.543
1613698912.822,-204.102,-25.879,-6.836,-66.895
1613698912.826,-292.969,-21.484,-7.812,-109.375
1613698912.830,132.812,-25.879,-6.348,31.738
1613698912.834,351.562,-25.391,0.000,134.277
1613698912.838,-57.129,-17.090,12.695,14.648
1613698912.841,-318.848,-17.578,19.043,-98.145
1613698912.845,13.184,-19.043,20.020,1.953
1613698912.849,368.164,-20.996,20.020,136.719
1613698912.853,72.266,-20.020,20.020,46.387
1613698912.857,-308.594,-15.137,19.043,-101.074
1613698912.829,-119.141,-19.531,14.160,-52.246
1613698912.833,314.941,-23.438,13.672,99.609
1613698912.837,197.266,-21.973,15.625,75.195
1613698912.841,-253.906,-29.785,10.742,-76.660
1613698912.845,-229.004,-38.086,7.812,-81.055
1613698912.849,236.328,-34.180,11.230,82.520
1613698912.853,307.617,-30.273,3.418,120.605
1613698912.856,-153.809,-28.320,0.000,-32.715
1613698912.860,-296.387,-24.414,4.395,-94.727
1613698912.864,98.145,-28.320,-0.977,27.832
1613698912.868,347.656,-29.297,-2.930,121.094
1613698912.872,-37.109,-26.855,-2.441,-3.418
1613698912.889,-328.613,-22.949,-16.602,-106.445
1613698912.893,-27.832,-18.066,-31.250,-4.883
1613698912.897,352.051,-19.043,-40.039,127.930
1613698912.901,91.309,-18.066,-37.598,52.246
1613698912.905,-305.664,-16.113,-18.066,-84.961
1613698912.909,-153.320,-23.438,-7.812,-50.293
1613698912.913,286.133,-29.785,-7.324,95.215
1613698912.916,207.520,-30.762,-3.906,82.031
1613698912.920,-252.930,-30.273,0.000,-74.219
1613698912.924,-264.648,-30.273,0.977,-88.379
1613698912.928,199.707,-23.438,-0.977,60.059
1613698912.932,315.918,-17.090,1.465,111.816
1613698912.934,-145.996,-18.555,0.977,-34.180
1613698912.938,-334.473,-21.973,-1.953,-117.676
1613698912.942,51.758,-26.367,-1.953,-0.977
1613698912.946,339.355,-26.855,-7.812,110.352
1613698912.950,-22.949,-24.414,-13.184,-2.441
1613698912.954,-317.383,-25.879,-9.277,-118.652
1613698912.958,-64.941,-28.320,-6.348,-46.387
1613698912.961,325.195,-27.832,-10.742,102.539
1613698912.965,113.770,-27.832,-13.672,59.570
1613698912.969,-307.617,-25.391,-7.812,-96.680
1613698912.973,-179.199,-21.973,-6.348,-71.777
1613698912.977,271.973,-23.438,-11.719,86.426
1613698913.024,244.629,-25.391,-13.672,91.797
1613698913.028,-222.656,-23.926,-12.695,-62.988
1613698913.032,-287.598,-22.949,-16.113,-101.562
1613698913.036,156.738,-21.973,-17.578,47.852
1613698913.040,322.754,-22.949,-31.250,118.652
1613698913.044,-108.398,-27.344,-47.363,-20.996
1613698913.048,-330.078,-27.832,-49.805,-108.398
1613698913.051,25.879,-21.973,-43.457,-0.488
1613698913.055,351.562,-21.973,-45.898,126.465
1613698913.059,20.508,-25.391,-71.777,27.832
1613698913.063,-333.984,-26.855,-78.125,-106.445
1613698913.067,-101.074,-20.996,-62.012,-34.668
1613698913.027,313.477,-20.508,-47.363,107.910
1613698913.031,105.469,-25.879,-34.180,51.270
1613698913.035,-310.059,-26.367,-28.809,-91.309
1613698913.039,-214.355,-28.320,-26.367,-82.031
1613698913.043,231.934,-33.691,-28.320,61.523
1613698913.047,256.348,-31.738,-30.273,88.379
1613698913.051,-203.613,-28.320,-25.879,-67.871
1613698913.054,-303.223,-26.855,-25.879,-124.512
1613698913.058,125.000,-23.438,-25.391,14.160
1613698913.062,339.844,-20.020,-24.414,103.027
1613698913.066,-79.590,-14.648,-18.066,-26.855
1613698913.070,-343.750,-10.742,-13.672,-120.605
1613698913.069,-1.465,-10.742,-20.996,-18.066
1613698913.073,358.887,-12.207,-20.996,108.887
1613698913.077,63.477,-7.812,-20.020,29.785
1613698913.081,-324.707,-4.883,-15.625,-96.680
1613698913.085,-134.766,-9.277,-12.207,-44.922
1613698913.089,308.105,-8.789,-15.137,96.191
1613698913.093,187.988,-12.695,-17.578,65.918
1613698913.096,-265.625,-14.160,-19.043,-83.984
1613698913.100,-247.070,-12.695,-22.461,-88.867
1613698913.104,213.867,-19.531,-25.879,59.570
1613698913.108,296.875,-13.672,-22.949,103.516
1613698913.112,-162.598,-7.324,-37.109,-38.086
1613698913.129,-301.758,-6.348,-55.664,-108.398
1613698913.133,107.422,-2.930,-55.176,21.484
1613698913.137,352.051,-9.277,-32.227,126.953
1613698913.141,-43.457,-7.324,0.977,-0.488
1613698913.145,-330.078,-8.301,14.648,-108.887
1613698913.149,-26.855,-14.160,14.160,-19.043
1613698913.153,348.633,-9.277,15.625,117.676
1613698913.156,90.820,-13.184,16.113,41.504
1613698913.160,-312.012,-21.484,11.719,-108.887
1613698913.164,-156.250,-25.391,8.301,-70.801
1613698913.168,288.574,-22.949,8.789,87.402
1613698913.172,220.703,-17.578,8.789,79.590
1613698913.159,-241.699,-24.902,3.418,-78.125
1613698913.163,-257.324,-24.902,5.371,-95.703
1613698913.167,194.336,-21.484,4.395,54.688
1613698913.171,305.664,-26.367,3.418,117.188
1613698913.175,-145.508,-26.367,6.348,-20.996
1613698913.179,-336.426,-24.902,5.859,-105.469
1613698913.183,51.270,-24.902,3.418,13.672
1613698913.186,350.098,-22.949,-12.207,135.254
1613698913.190,1.465,-21.484,-23.438,35.156
1613698913.194,-336.426,-28.809,-43.457,-102.539
1613698913.198,-90.820,-31.738,-80.078,-49.316
1613698913.202,321.777,-25.879,-89.355,96.680
1613698913.220,99.609,-26.367,-87.402,29.785
1613698913.224,-338.867,-28.809,-71.289,-122.070
1613698913.228,-218.750,-27.344,-48.828,-75.684
1613698913.232,245.605,-23.926,-41.992,79.590
1613698913.236,229.980,-19.043,-39.551,83.984
1613698913.240,-241.211,-17.578,-33.203,-73.730
1613698913.244,-304.199,-17.578,-43.457,-109.863
1613698913.247,147.461,-13.184,-72.754,38.086
1613698913.251,316.406,-12.695,-80.078,109.375
1613698913.255,-119.141,-11.230,-80.078,-26.367
1613698913.259,-352.051,-16.602,-80.078,-125.977
1613698913.263,5.859,-23.926,-71.777,-13.184
1613698913.264,332.520,-25.879,-59.082,114.258
1613698913.268,-2.930,-21.484,-49.805,8.789
1613698913.272,-351.074,-21.484,-49.805,-120.605
1613698913.276,-113.281,-23.438,-40.527,-52.246
1613698913.280,310.059,-21.484,-50.781,103.516
1613698913.284,135.742,-24.902,-80.566,63.965
1613698913.288,-308.594,-32.227,-86.914,-97.168
1613698913.291,-229.980,-34.180,-73.730,-93.750
1613698913.295,229.980,-28.320,-53.223,65.918
1613698913.299,255.371,-26.367,-41.504,99.609
1613698913.303,-200.195,-25.391,-34.668,-52.246
1613698913.307,-305.664,-23.926,-36.133,-107.422
1613698913.324,125.488,-22.461,-55.176,36.621
1613698913.328,345.215,-10.254,-61.523,130.859
1613698913.332,-78.125,-11.230,-62.500,-11.230
1613698913.336,-341.797,-19.043,-62.988,-116.699
1613698913.340,-5.371,-13.672,-58.594,-15.625
1613698913.344,345.703,-17.090,-61.035,110.352
1613698913.348,45.898,-19.531,-57.129,24.902
1613698913.351,-323.730,-13.672,-51.758,-114.746
1613698913.355,-128.906,-20.508,-74.219,-59.570
1613698913.359,296.875,-23.926,-96.680,100.098
1613698913.363,184.570,-16.113,-90.820,73.730
1613698913.367,-261.230,-14.160,-75.684,-92.773
1613698913.354,-243.164,-20.996,-63.965,-109.375
1613698913.358,203.125,-36.621,-66.406,31.738
1613698913.362,262.695,-52.246,-74.219,58.105
1613698913.366,-208.008,-56.641,-69.824,-99.121
1613698913.370,-296.387,-52.734,-65.918,-134.766
1613698913.374,107.422,-48.828,-64.941,0.488
1613698913.378,306.152,-45.898,-67.871,78.613
1613698913.381,-85.449,-44.434,-84.961,-42.480
1613698913.385,-374.512,-45.410,-85.449,-152.832
1613698913.389,-69.336,-45.410,-56.641,-67.383
1613698913.393,312.012,-41.504,-27.344,72.754
1613698913.397,63.477,-41.992,-8.789,8.789
1613698913.415,-341.797,-46.387,-5.371,-126.465
1613698913.419,-192.871,-45.898,-8.789,-97.656
1613698913.423,269.043,-36.621,-1.953,60.059
1613698913.427,204.590,-28.809,1.953,64.453
1613698913.431,-255.859,-25.391,-4.883,-97.656
1613698913.435,-277.344,-26.367,-7.324,-123.047
1613698913.439,184.570,-18.066,-0.977,46.875
1613698913.442,304.199,-25.879,-9.277,99.609
1613698913.446,-183.594,-68.359,-59.570,-86.426
1613698913.450,-355.469,-57.129,-80.566,-147.949
1613698913.454,47.363,-34.668,-85.938,0.000
1613698913.458,341.797,-33.203,-88.867,117.676
1613698913.444,-14.160,-28.809,-69.336,11.719
1613698913.448,-337.402,-24.902,-53.223,-115.234
1613698913.452,-80.566,-27.832,-46.875,-48.828
1613698913.456,314.941,-33.691,-50.781,97.656
1613698913.460,130.371,-27.832,-49.805,50.781
1613698913.464,-305.664,-30.273,-44.434,-110.352
1613698913.468,-218.750,-37.109,-42.480,-96.191
1613698913.471,236.816,-27.344,-42.969,67.871
1613698913.475,218.750,-23.438,-41.504,70.801
1613698913.479,-233.887,-26.855,-36.621,-89.844
1613698913.483,-299.805,-29.297,-42.480,-125.977
1613698913.487,134.766,-26.855,-65.430,26.855
1613698913.489,299.805,-25.879,-80.566,107.910
1613698913.493,-127.441,-21.973,-80.566,-35.156
1613698913.497,-347.656,-22.949,-66.406,-125.977
1613698913.501,6.348,-29.297,-48.828,-12.207
1613698913.505,332.520,-24.902,-42.480,115.723
1613698913.509,3.906,-20.996,-34.668,10.254
1613698913.513,-354.980,-30.762,-32.715,-128.906
1613698913.516,-130.859,-40.527,-33.203,-53.711
1613698913.520,299.805,-36.621,-27.344,97.168
1613698913.524,140.625,-36.133,-25.391,51.270
1613698913.528,-314.941,-60.059,-45.898,-118.652
1613698913.532,-250.000,-60.547,-48.340,-113.770
1613698913.534,219.238,-41.992,-31.738,54.199
1613698913.538,251.465,-44.434,-46.387,82.520
1613698913.542,-207.520,-39.551,-69.824,-73.730
1613698913.546,-313.477,-30.273,-76.172,-118.164
1613698913.550,104.980,-35.645,-72.754,17.578
1613698913.554,308.594,-40.039,-56.152,95.703
1613698913.558,-100.098,-36.133,-36.621,-29.785
1613698913.561,-356.934,-34.668,-29.785,-123.047
1613698913.565,-31.250,-38.574,-26.367,-28.809
1613698913.569,326.172,-39.062,-28.809,99.609
1613698913.573,33.691,-40.527,-27.344,16.602
1613698913.577,-345.215,-39.551,-20.508,-128.418
1613698913.579,-152.344,-36.621,-26.855,-80.566
1613698913.583,281.250,-36.133,-18.066,73.730
1613698913.587,163.574,-35.645,1.465,53.223
1613698913.591,-286.621,-37.598,-7.324,-100.586
1613698913.595,-259.277,-36.133,-31.738,-116.211
1613698913.599,193.848,-34.180,-41.016,37.598
1613698913.603,266.113,-38.086,-41.504,88.379
1613698913.606,-184.570,-38.574,-40.527,-62.012
1613698913.610,-332.520,-41.992,-21.484,-128.418
1613698913.614,62.500,-41.504,-5.371,0.977
1613698913.618,314.453,-39.551,-5.371,96.680
1613698913.622,-72.266,-41.504,-4.883,-31.738
1613698913.655,-372.070,-39.551,-2.930,-149.414
1613698913.659,-81.543,-38.086,-7.324,-59.570
1613698913.663,295.898,-43.457,-13.672,75.684
1613698913.667,52.246,-40.039,-15.625,7.812
1613698913.671,-342.285,-35.156,-19.043,-130.859
1613698913.675,-208.496,-41.504,-18.066,-94.727
1613698913.679,232.422,-40.527,-32.715,58.594
1613698913.682,178.223,-34.668,-76.660,54.199
1613698913.686,-278.809,-36.133,-92.773,-101.074
1613698913.690,-305.664,-42.480,-95.703,-123.535
1613698913.694,150.879,-41.992,-92.285,28.809
1613698913.698,276.855,-32.715,-68.359,86.914
1613698913.684,-173.828,-30.273,-54.199,-60.059
1613698913.688,-358.398,-28.809,-50.781,-140.625
1613698913.692,26.855,-30.762,-45.898,-16.113
1613698913.696,319.824,-29.785,-40.527,95.703
1613698913.700,-40.527,-27.344,-42.969,-19.531
1613698913.704,-363.770,-27.832,-67.383,-138.184
1613698913.708,-102.051,-31.250,-85.449,-67.383
1613698913.711,299.805,-33.203,-74.707,74.707
1613698913.715,100.586,-27.344,-48.340,29.297
1613698913.719,-323.730,-34.180,-38.574,-117.188
1613698913.723,-219.238,-36.133,-42.480,-98.145
1613698913.727,245.117,-24.902,-41.992,52.246
1613698913.729,222.168,-22.949,-41.016,69.336
1613698913.733,-240.234,-24.414,-36.133,-80.566
1613698913.737,-293.945,-26.367,-33.203,-126.953
1613698913.741,138.184,-29.297,-35.156,17.090
1613698913.745,304.199,-31.250,-27.832,95.215
1613698913.749,-123.047,-32.715,-26.367,-45.898
1613698913.753,-339.844,-34.668,-58.594,-130.859
1613698913.756,4.883,-36.133,-76.172,-17.090
1613698913.760,321.289,-39.062,-68.848,108.398
1613698913.764,3.906,-38.086,-60.547,7.324
1613698913.768,-348.145,-38.086,-42.480,-136.230
1613698913.772,-113.770,-39.551,-26.855,-55.664
1613698913.774,323.730,-30.762,-17.090,127.441
1613698913.778,149.902,-22.949,-18.066,61.035
1613698913.782,-309.570,-25.879,-19.043,-129.883
1613698913.786,-252.930,-29.785,-18.066,-129.395
1613698913.790,219.727,-32.715,-19.043,49.805
1613698913.794,254.883,-30.762,-16.113,85.938
1613698913.798,-222.656,-30.273,-18.555,-97.656
1613698913.801,-343.262,-32.715,-21.973,-157.227
1613698913.805,88.379,-28.809,-34.180,6.348
1613698913.809,316.406,-31.250,-62.988,88.867
1613698913.813,-97.656,-34.668,-78.125,-53.711
1613698913.817,-358.398,-31.250,-71.289,-148.926
1613698913.819,-28.809,-34.180,-46.387,-51.270
1613698913.823,322.266,-29.297,-30.273,88.867
1613698913.827,30.762,-28.809,-29.297,8.301
1613698913.831,-351.074,-36.621,-26.855,-133.789
1613698913.835,-159.668,-35.645,-26.855,-79.102
1613698913.839,274.414,-40.039,-27.344,78.613
1613698913.843,156.738,-42.480,-28.320,53.711
1613698913.846,-290.527,-39.062,-27.832,-102.051
1613698913.850,-282.715,-43.945,-32.715,-116.699
1613698913.854,175.293,-46.875,-39.062,24.414
1613698913.858,265.137,-41.504,-43.457,68.848
1613698913.862,-189.453,-36.133,-60.059,-68.848
1613698913.865,-337.402,-36.133,-73.730,-127.930
1613698913.869,68.848,-41.016,-75.195,0.977
1613698913.873,325.684,-36.133,-61.035,108.398
1613698913.877,-59.570,-29.785,-35.156,-12.207
1613698913.881,-354.004,-35.645,-30.273,-137.695
1613698913.885,-63.965,-37.109,-23.926,-49.805
1613698913.889,314.941,-37.598,-22.461,89.355
1613698913.892,62.988,-41.016,-29.785,20.020
1613698913.896,-338.867,-38.574,-27.344,-117.188
1613698913.900,-192.871,-40.039,-34.668,-92.773
1613698913.904,242.188,-42.969,-34.668,51.270
1613698913.908,176.270,-40.527,-33.203,46.387
1613698913.924,-275.879,-40.039,-34.180,-106.445
1613698913.928,-296.875,-36.133,-28.809,-130.371
1613698913.932,155.273,-37.598,-48.340,20.996
1613698913.936,279.785,-40.527,-70.801,80.078
1613698913.940,-165.039,-36.621,-69.336,-60.547
1613698913.944,-354.980,-36.133,-62.988,-131.836
1613698913.948,21.484,-36.621,-47.852,-12.695
1613698913.951,319.336,-37.109,-33.691,95.703
1613698913.955,-32.715,-37.109,-25.391,-16.113
1613698913.959,-359.863,-33.203,-23.926,-133.789
1613698913.963,-104.980,-34.668,-27.832,-50.781
1613698913.967,299.316,-36.621,-23.438,91.797
1613698913.971,102.051,-39.551,-27.832,31.738
1613698913.975,-317.871,-41.016,-28.320,-119.629
1613698913.979,-217.285,-41.016,-25.391,-96.191
1613698913.983,240.234,-37.109,-25.879,60.059
1613698913.987,229.004,-41.016,-33.691,68.359
1613698913.991,-230.957,-42.969,-55.176,-88.867
1613698913.995,-290.039,-42.969,-76.172,-124.023
1613698913.998,148.926,-62.500,-97.656,15.137
1613698914.002,295.410,-60.059,-76.660,64.453
1613698914.006,-157.227,-54.199,-49.805,-90.332
1613698914.010,-372.559,-53.223,-42.480,-159.180
1613698914.014,-7.812,-40.527,-36.133,-44.434
1613698914.015,313.965,-41.016,-36.621,66.895
1613698914.019,-14.160,-46.875,-38.086,-30.762
1613698914.023,-362.305,-45.410,-39.551,-159.668
1613698914.027,-126.465,-47.363,-40.527,-97.656
1613698914.031,293.945,-47.852,-42.969,62.012
1613698914.035,126.953,-43.945,-35.645,40.039
1613698914.039,-312.012,-39.062,-29.785,-122.070
1613698914.042,-242.676,-39.551,-48.340,-121.582
1613698914.046,211.426,-38.574,-69.336,44.434
1613698914.050,236.816,-36.621,-69.824,79.590
1613698914.054,-219.238,-35.645,-59.570,-79.102
1613698914.058,-328.613,-37.598,-42.969,-141.602
1613698914.059,90.332,-41.992,-33.203,5.859
1613698914.063,312.012,-38.574,-30.762,106.445
1613698914.067,-96.680,-37.109,-28.320,-34.180
1613698914.071,-348.633,-36.621,-23.438,-137.207
1613698914.075,-23.438,-28.809,-18.066,-29.297
1613698914.079,326.172,-28.320,-19.043,107.910
1613698914.083,46.387,-33.203,-21.484,21.973
1613698914.086,-334.473,-31.738,-26.367,-128.418
1613698914.090,-154.297,-28.320,-31.250,-72.754
1613698914.094,275.879,-29.785,-25.879,86.426
1613698914.098,174.805,-32.227,-31.738,61.035
1613698914.102,-268.066,-33.203,-58.105,-104.004
1613698914.104,-253.418,-34.180,-65.430,-113.281
1613698914.108,195.312,-33.691,-51.270,54.199
1613698914.112,275.879,-37.109,-36.133,92.285
1613698914.116,-191.406,-43.457,-30.762,-77.148
1613698914.120,-351.562,-43.945,-27.832,-139.648
1613698914.124,55.664,-39.551,-29.297,-1.953
1613698914.128,307.129,-38.086,-31.250,92.773
1613698914.131,-79.590,-42.969,-31.250,-34.180
1613698914.135,-380.859,-50.293,-32.227,-147.461
1613698914.139,-82.520,-50.293,-30.762,-64.941
1613698914.143,312.988,-47.363,-25.879,77.637
1613698914.147,57.129,-55.176,-23.438,9.277
1613698914.149,-347.656,-62.988,-22.461,-138.184
1613698914.153,-195.801,-61.523,-10.254,-93.750
1613698914.157,248.535,-55.664,-0.977,66.406
1613698914.161,185.547,-46.875,-24.414,62.500
1613698914.165,-271.973,-46.387,-44.434,-92.773
1613698914.169,-298.828,-48.828,-44.434,-118.652
1613698914.173,165.527,-54.688,-33.691,47.852
1613698914.176,294.922,-51.758,-24.902,111.816
1613698914.180,-195.312,-49.805,-26.367,-83.496
1613698914.184,-378.418,-54.688,-24.414,-167.480
1613698914.188,29.297,-51.758,-21.973,-25.391
1613698914.192,310.547,-49.805,-22.949,74.707
1613698914.209,-49.316,-43.457,-30.273,-39.062
1613698914.213,-359.863,-46.387,-38.574,-158.691
1613698914.217,-77.148,-43.945,-39.062,-66.406
1613698914.221,328.125,-35.156,-35.645,94.727
1613698914.225,114.258,-36.621,-38.086,33.203
1613698914.229,-314.941,-37.109,-40.039,-125.000
1613698914.233,-201.660,-34.668,-35.645,-88.867
1613698914.236,253.418,-32.715,-31.738,75.684
1613698914.240,240.234,-32.227,-32.715,86.914
1613698914.244,-212.402,-34.668,-52.734,-63.965
1613698914.248,-288.574,-37.598,-74.707,-104.980
1613698914.252,145.996,-37.109,-75.684,43.457
1613698914.254,328.613,-40.039,-65.430,119.629
1613698914.258,-89.844,-39.062,-43.457,-11.719
1613698914.262,-316.895,-31.250,-27.344,-93.262
1613698914.266,30.762,-29.785,-26.367,10.254
1613698914.270,354.004,-33.691,-26.367,139.648
1613698914.274,23.438,-34.668,-27.344,38.086
1613698914.278,-335.938,-38.574,-29.785,-114.258
1613698914.281,-112.305,-35.156,-23.926,-52.246
1613698914.285,300.781,-32.715,-20.996,98.145
1613698914.289,146.484,-40.039,-20.020,58.594
1613698914.293,-294.434,-41.504,-18.066,-95.215
1613698914.297,-232.910,-42.480,-20.508,-91.309
1613698914.300,222.168,-42.480,-24.414,60.547
1613698914.304,243.164,-44.922,-29.297,73.730
1613698914.308,-218.750,-50.781,-31.738,-93.262
1613698914.312,-333.496,-54.688,-33.203,-144.043
1613698914.316,92.285,-51.758,-54.688,-1.953
1613698914.320,310.547,-51.270,-79.102,77.148
1613698914.324,-105.957,-55.176,-85.449,-55.664
1613698914.327,-365.234,-58.594,-78.613,-154.785
1613698914.331,-35.645,-61.035,-60.547,-53.223
1613698914.335,318.359,-57.129,-49.316,80.078
1613698914.339,28.809,-51.758,-46.387,-3.418
1613698914.343,-348.633,-49.316,-44.922,-144.043
1613698914.329,-151.855,-48.340,-44.434,-94.727
1613698914.333,284.668,-47.852,-60.059,61.523
1613698914.337,162.109,-52.734,-72.266,48.340
1613698914.341,-281.738,-48.828,-72.754,-108.887
1613698914.345,-232.422,-43.945,-76.660,-111.816
1613698914.349,203.613,-44.434,-73.730,40.527
1613698914.353,273.438,-46.875,-69.336,75.684
1613698914.356,-161.621,-44.434,-65.430,-70.801
1613698914.360,-314.453,-39.062,-59.082,-127.930
1613698914.364,71.777,-41.992,-62.500,2.441
1613698914.368,327.148,-41.504,-64.453,103.027
1613698914.372,-46.387,-37.109,-58.594,-20.020
1613698914.378,-348.633,-35.156,-71.777,-138.184
1613698914.382,-65.430,-40.527,-87.402,-51.758
1613698914.386,318.359,-43.945,-89.355,85.449
1613698914.390,68.359,-44.434,-74.707,15.137
1613698914.394,-321.777,-48.340,-47.852,-104.004
1613698914.398,-164.551,-46.387,-38.574,-70.312
1613698914.402,258.301,-38.574,-44.922,45.898
1613698914.405,152.344,-39.062,-49.316,23.438
1613698914.409,-284.180,-43.457,-47.363,-120.117
1613698914.413,-280.273,-46.387,-44.922,-124.023
1613698914.417,157.227,-51.270,-53.223,15.625
1613698914.421,276.367,-52.734,-57.129,56.152
1613698914.451,-174.316,-49.805,-57.129,-85.449
1613698914.455,-378.418,-62.012,-70.801,-175.293
1613698914.459,6.836,-59.570,-72.754,-56.152
1613698914.463,314.453,-47.852,-62.988,71.289
1613698914.467,-34.180,-48.340,-51.270,-26.855
1613698914.471,-357.422,-46.875,-41.504,-139.160
1613698914.475,-100.098,-43.945,-42.480,-62.500
1613698914.478,301.270,-43.945,-45.410,79.102
1613698914.482,93.750,-42.969,-55.664,20.996
1613698914.486,-325.195,-41.504,-76.172,-130.371
1613698914.490,-219.727,-46.875,-87.891,-108.398
1613698914.494,228.516,-55.664,-78.125,55.664
1613698914.479,210.449,-52.246,-50.293,73.242
1613698914.483,-260.254,-52.246,-36.621,-88.867
1613698914.487,-330.078,-58.105,-36.133,-125.977
1613698914.491,111.328,-60.059,-37.598,20.508
1613698914.495,286.133,-61.523,-35.645,86.914
1613698914.499,-139.648,-61.035,-33.203,-56.152
1613698914.503,-369.141,-62.988,-37.109,-150.391
1613698914.506,-14.160,-58.105,-36.621,-37.598
1613698914.510,309.082,-55.664,-32.715,84.473
1613698914.514,-3.418,-55.664,-20.996,-13.672
1613698914.518,-353.027,-52.246,-4.883,-142.090
1613698914.522,-143.555,-49.805,-4.883,-83.496
1613698914.528,267.090,-46.387,-10.254,70.801
1613698914.532,108.398,-50.293,-9.277,27.832
1613698914.536,-324.219,-51.758,-12.207,-139.160
1613698914.540,-268.066,-48.340,-16.113,-134.277
1613698914.544,187.988,-50.293,-12.207,31.738
1613698914.548,220.703,-51.270,-16.113,55.176
1613698914.552,-235.352,-54.199,-25.879,-110.840
1613698914.555,-350.586,-56.152,-35.645,-164.551
1613698914.559,66.895,-50.781,-37.109,-19.043
1613698914.563,296.875,-46.387,-45.410,74.707
1613698914.567,-114.746,-45.898,-63.965,-54.688
1613698914.571,-381.348,-43.457,-70.312,-149.902
1613698914.592,-55.664,-34.180,-62.012,-45.898
1613698914.596,314.941,-35.156,-37.598,89.355
1613698914.600,35.645,-39.062,-28.320,14.648
1613698914.604,-355.469,-43.457,-37.109,-137.207
1613698914.608,-177.246,-48.340,-42.969,-107.910
1613698914.612,270.020,-43.945,-41.504,56.641
1613698914.616,168.457,-46.387,-33.203,42.480
1613698914.619,-283.203,-55.664,-32.715,-109.375
1613698914.623,-267.578,-53.223,-36.621,-116.699
1613698914.627,189.453,-51.270,-36.133,29.785
1613698914.631,268.066,-54.688,-36.621,67.383
1613698914.635,-190.918,-53.223,-39.062,-87.402
1613698914.629,-337.402,-51.270,-41.504,-150.391
1613698914.633,62.988,-46.875,-41.016,-24.902
1613698914.637,317.383,-45.410,-32.715,73.730
1613698914.641,-64.941,-46.875,-28.320,-39.551
1613698914.645,-364.746,-45.898,-31.738,-151.855
1613698914.649,-71.289,-43.945,-38.086,-67.871
1613698914.653,308.105,-45.898,-38.086,73.730
1613698914.656,68.359,-46.387,-39.062,0.977
1613698914.660,-319.824,-42.969,-41.992,-141.113
1613698914.664,-185.059,-42.969,-39.062,-100.586
1613698914.668,259.277,-47.852,-32.227,60.059
1613698914.672,191.895,-46.875,-35.645,58.105
1613698914.659,-281.738,-45.410,-57.129,-99.609
1613698914.663,-299.805,-45.410,-69.336,-118.164
1613698914.667,154.785,-49.805,-76.660,25.879
1613698914.671,280.762,-47.852,-69.824,80.566
1613698914.675,-154.297,-42.969,-41.992,-58.105
1613698914.679,-346.191,-39.551,-26.367,-126.953
1613698914.683,25.879,-40.039,-22.949,-1.953
1613698914.686,332.520,-45.898,-21.484,107.910
1613698914.690,-18.555,-44.922,-21.973,-5.371
1613698914.694,-351.074,-43.457,-20.996,-134.277
1613698914.698,-95.215,-46.387,-18.066,-53.223
1613698914.702,311.035,-46.387,-15.137,91.797
1613698914.721,101.074,-50.293,-17.090,28.320
1613698914.725,-326.660,-54.199,-21.484,-120.117
1613698914.729,-223.145,-52.246,-26.367,-107.422
1613698914.733,235.840,-45.410,-32.715,46.387
1613698914.737,225.586,-40.527,-31.738,67.871
1613698914.741,-241.211,-45.410,-29.785,-90.332
1613698914.745,-312.988,-47.852,-30.273,-128.418
1613698914.748,130.859,-43.945,-23.926,22.949
1613698914.752,304.688,-41.504,-15.137,99.121
1613698914.756,-130.859,-41.016,-12.695,-40.527
1613698914.760,-359.375,-43.945,-13.184,-137.207
1613698914.764,-3.418,-44.922,-16.113,-31.738
1613698914.780,328.613,-50.781,-20.508,91.797
1613698914.784,2.441,-46.387,-16.602,-2.930
1613698914.788,-348.633,-36.133,-15.137,-127.441
1613698914.792,-116.699,-29.785,-13.672,-56.152
1613698914.796,300.781,-24.902,-17.090,91.309
1613698914.800,141.602,-26.367,-21.484,51.270
1613698914.804,-293.457,-29.785,-23.438,-101.562
1613698914.807,-228.027,-35.156,-34.668,-100.586
1613698914.811,225.586,-35.156,-59.082,58.594
1613698914.815,217.285,-31.738,-67.871,74.219
1613698914.819,144.531,-29.785,-45.898,29.785
1613698914.823,319.336,-31.738,-29.785,98.633
1613698914.809,-59.082,-32.227,-32.227,-14.648
1613698914.813,-340.332,-32.715,-29.785,-131.836
1613698914.817,-16.113,-32.715,-29.785,-37.109
1613698914.821,337.891,-27.344,-31.738,93.750
1613698914.825,55.176,-26.367,-28.320,6.836
1613698914.829,-328.125,-29.297,-27.832,-135.742
1613698914.833,-160.156,-37.598,-32.715,-82.520
1613698914.836,273.926,-41.504,-55.176,73.242
1613698914.840,166.016,-44.434,-70.801,44.922
1613698914.844,-293.945,-45.410,-70.312,-118.652
1613698914.848,-277.344,-47.363,-72.266,-125.977
1613698914.852,169.922,-51.758,-69.824,33.203
1613698914.854,252.441,-48.340,-67.383,80.078
1613698914.858,-188.477,-46.387,-61.035,-68.848
1613698914.862,-334.473,-46.875,-58.594,-138.184
1613698914.866,61.035,-49.805,-65.430,-13.184
1613698914.870,318.848,-48.340,-58.105,91.309
1613698914.874,-66.406,-45.898,-53.223,-23.438
1613698914.878,-379.395,-48.828,-54.688,-135.742
1613698914.881,-84.961,-50.781,-59.570,-57.617
1613698914.885,305.664,-50.293,-62.012,74.219
1613698914.889,54.688,-48.828,-56.641,2.930
1613698914.893,-356.934,-51.270,-56.152,-142.090
1613698914.897,-216.309,-50.781,-57.129,-111.816
1613698914.899,232.910,-46.875,-55.176,46.387
1613698914.903,174.316,-45.898,-57.617,50.781
1613698914.907,-288.574,-43.945,-60.059,-111.328
1613698914.911,-316.895,-45.410,-60.547,-142.578
1613698914.915,128.906,-49.316,-62.012,10.254
1613698914.919,259.277,-46.875,-72.266,78.125
1613698914.923,-181.641,-43.945,-82.031,-68.848
1613698914.926,-366.211,-48.340,-84.473,-148.926
1613698914.930,12.695,-53.711,-73.242,-16.113
1613698914.934,310.547,-46.875,-54.199,94.727
1613698914.938,-49.805,-44.434,-49.805,-36.133
1613698914.942,-387.207,-49.805,-45.410,-170.410
1613698914.960,-122.559,-47.363,-39.062,-83.496
1613698914.964,277.832,-46.875,-37.598,58.105
1613698914.968,65.918,-54.688,-42.969,-3.906
1613698914.972,-349.609,-59.570,-47.852,-142.090
1613698914.976,-222.168,-56.152,-43.457,-107.910
1613698914.980,215.820,-58.105,-42.969,40.527
1613698914.984,198.242,-59.570,-43.945,51.758
1613698914.987,-250.977,-52.246,-33.203,-105.469
1613698914.991,-324.707,-49.316,-23.926,-143.555
1613698914.995,109.375,-47.363,-14.648,16.113
1613698914.999,295.898,-43.457,-11.719,89.844
1613698915.003,-130.371,-45.898,-20.508,-59.570
1613698915.004,-372.070,-47.852,-25.879,-145.996
1613698915.008,-19.531,-44.434,-25.391,-35.156
1613698915.012,319.336,-48.340,-21.484,85.938
1613698915.016,-1.465,-51.758,-20.996,-9.277
1613698915.020,-369.141,-51.758,-27.344,-141.113
1613698915.024,-150.879,-54.688,-22.461,-73.730
1613698915.028,277.832,-46.875,-23.926,77.637
1613698915.031,128.906,-43.945,-30.273,45.898
1613698915.035,-315.918,-47.852,-29.297,-112.793
1613698915.039,-258.789,-46.875,-25.879,-110.840
1613698915.043,208.008,-47.852,-21.973,50.293
1613698915.047,246.094,-44.922,-19.531,77.148
1613698915.049,-223.145,-47.363,-16.602,-76.660
1613698915.053,-338.867,-46.387,-20.020,-128.906
1613698915.057,88.379,-38.574,-28.320,0.488
1613698915.061,318.359,-40.039,-24.414,98.633
1613698915.065,-93.262,-43.457,-24.902,-26.367
1613698915.069,-369.629,-45.898,-31.738,-133.301
1613698915.073,-50.781,-46.387,-30.762,-35.645
1613698915.076,309.570,-46.387,-33.203,89.844
1613698915.080,18.555,-45.410,-30.762,9.766
1613698915.084,-368.164,-43.945,-31.738,-129.395
1613698915.088,-176.270,-47.363,-56.152,-82.520
1613698915.092,264.160,-49.805,-72.754,64.941
1613698915.094,159.668,-42.969,-68.359,41.992
1613698915.098,-278.320,-38.086,-39.551,-96.191
1613698915.102,-259.766,-47.363,-22.461,-114.746
1613698915.106,179.199,-58.105,-32.227,28.809
1613698915.110,255.859,-55.176,-32.715,84.961
1613698915.114,-199.707,-52.246,-29.297,-60.059
1613698915.118,-352.539,-57.129,-30.273,-133.301
1613698915.121,44.922,-62.012,-33.691,-5.859
1613698915.125,309.570,-55.664,-35.645,96.191
1613698915.129,-86.426,-52.734,-38.574,-36.133
1613698915.133,-375.488,-57.617,-40.039,-146.484
1613698915.137,-75.684,-60.059,-40.527,-52.246
1613698915.139,308.105,-49.805,-42.480,81.055
1613698915.143,82.031,-43.945,-44.434,16.602
1613698915.147,-302.734,-48.340,-39.551,-111.816
1613698915.151,-172.363,-44.434,-31.250,-78.613
1613698915.155,244.141,-46.875,-35.645,54.199
1613698915.159,179.199,-50.781,-39.062,44.434
1613698915.163,-277.344,-48.828,-39.551,-111.816
1613698915.166,-303.223,-50.293,-42.969,-132.812
1613698915.170,156.738,-51.270,-43.945,19.531
1613698915.174,293.945,-45.898,-42.480,81.055
1613698915.178,-155.762,-48.340,-43.945,-60.059
1613698915.182,-352.539,-48.340,-41.504,-134.277
1613698915.184,22.949,-52.246,-41.504,-20.996
1613698915.188,320.312,-60.547,-42.480,82.520
1613698915.192,-31.738,-55.176,-41.504,-22.949
1613698915.196,-365.723,-50.293,-39.062,-146.973
1613698915.200,-112.793,-52.734,-41.992,-69.336
1613698915.204,296.387,-48.340,-42.480,83.008
1613698915.208,109.375,-42.969,-38.086,38.574
1613698915.211,-313.965,-42.969,-32.227,-109.863
1613698915.215,-215.820,-48.340,-30.273,-97.656
1613698915.219,238.281,-45.898,-33.203,58.105
1613698915.223,228.027,-47.363,-32.715,77.148
1613698915.227,-229.004,-56.152,-36.621,-83.008
1613698915.229,-296.875,-51.270,-37.109,-122.070
1613698915.233,130.859,-48.340,-38.574,26.367
1613698915.237,302.734,-51.270,-38.574,103.516
1613698915.241,-125.000,-48.340,-37.598,-33.691
1613698915.245,-356.445,-49.316,-35.645,-130.371
1613698915.249,-6.348,-49.316,-31.738,-18.066
1613698915.253,323.242,-44.434,-32.227,115.723
1613698915.256,6.836,-50.293,-38.086,8.789
1613698915.260,-347.656,-53.223,-37.598,-127.930
1613698915.264,-125.488,-48.340,-43.457,-58.105
1613698915.268,290.039,-51.270,-59.570,88.867
1613698915.272,135.742,-55.176,-74.219,44.434
1613698915.274,-297.363,-51.270,-74.707,-104.492
1613698915.278,-234.863,-45.410,-56.152,-97.656
1613698915.282,216.309,-43.945,-40.527,56.152
1613698915.286,249.512,-48.828,-34.668,89.844
1613698915.290,-207.520,-56.641,-40.039,-65.918
1613698915.294,-330.566,-56.641,-42.480,-127.441
1613698915.298,79.590,-58.594,-41.016,3.906
1613698915.301,308.105,-56.152,-40.039,92.773
1613698915.305,-93.262,-52.734,-36.133,-37.109
1613698915.309,-371.094,-56.641,-36.133,-137.695
1613698915.313,-44.922,-51.758,-29.785,-33.691
1613698915.317,332.520,-43.945,-19.531,103.516
1613698915.334,43.457,-44.922,-18.066,15.625
1613698915.338,-343.750,-39.551,-18.555,-128.906
1613698915.342,-158.203,-42.480,-17.090,-83.496
1613698915.346,276.855,-45.898,-16.113,69.336
1613698915.350,174.316,-40.527,-17.090,54.199
1613698915.354,-278.320,-42.480,-16.602,-105.469
1613698915.358,-264.648,-46.875,-19.531,-116.211
1613698915.361,188.965,-49.316,-25.391,35.645
1613698915.365,277.344,-47.363,-24.414,83.984
1613698915.369,-180.664,-44.922,-25.879,-61.035
1613698915.373,-338.867,-50.781,-25.391,-131.836
1613698915.377,68.359,-52.246,-26.855,-15.137
1613698915.380,321.777,-44.434,-31.250,83.496
1613698915.384,-63.477,-41.992,-31.250,-29.297
1613698915.388,-341.309,-43.945,-27.344,-122.559
1613698915.392,-52.734,-42.480,-19.531,-34.668
1613698915.396,307.617,-46.387,-15.625,83.496
1613698915.400,59.570,-45.898,-15.625,13.672
1613698915.404,-354.492,-43.945,-16.113,-132.812
1613698915.407,-205.078,-45.898,-20.020,-104.492
1613698915.411,253.906,-40.527,-21.973,59.082
1613698915.415,201.172,-33.203,-20.996,64.453
1613698915.419,-252.930,-33.203,-22.461,-96.680
1613698915.423,-283.203,-38.086,-24.414,-121.094
1613698915.424,165.527,-42.969,-20.508,41.016
1613698915.428,292.480,-44.434,-32.227,94.727
1613698915.432,-164.062,-52.246,-50.293,-68.848
1613698915.436,-368.652,-62.988,-52.734,-154.297
1613698915.440,8.789,-63.477,-52.246,-37.109
1613698915.444,292.480,-59.570,-47.363,73.242
1613698915.448,-51.758,-57.129,-43.945,-27.832
1613698915.451,-372.070,-57.129,-41.504,-148.438
1613698915.455,-122.070,-54.199,-40.039,-67.871
1613698915.459,292.480,-53.223,-43.457,89.844
1613698915.463,107.422,-53.223,-43.945,32.227
1613698915.467,-322.754,-59.082,-47.852,-121.582
1613698915.469,-219.727,-61.035,-45.410,-102.539
1613698915.473,248.047,-51.270,-41.016,58.105
1613698915.477,236.816,-44.922,-58.105,73.730
1613698915.481,-231.934,-49.316,-65.430,-83.984
1613698915.485,-303.223,-54.199,-71.289,-121.094
1613698915.489,132.812,-53.711,-91.797,26.855
1613698915.493,323.730,-43.945,-92.773,110.840
1613698915.496,-96.680,-30.273,-79.102,-24.902
1613698915.500,-336.426,-25.391,-56.641,-111.328
1613698915.504,20.020,-29.785,-43.457,-1.465
1613698915.508,362.793,-25.879,-37.109,125.488
1613698915.512,32.227,-28.809,-37.109,27.832
1613698915.514,-336.914,-36.133,-41.992,-115.234
1613698915.518,-112.305,-32.227,-39.062,-56.641
1613698915.522,309.570,-32.227,-36.133,94.727
1613698915.526,151.367,-31.738,-31.738,60.547
1613698915.530,-285.645,-31.738,-27.832,-93.262
1613698915.534,-229.492,-36.133,-27.832,-91.797
1613698915.538,224.609,-33.203,-32.715,67.383
1613698915.541,259.277,-29.297,-35.156,97.168
1613698915.545,-193.848,-30.273,-30.762,-57.617
1613698915.549,-303.223,-32.227,-29.297,-110.840
1613698915.553,115.234,-29.785,-28.809,27.832
1613698915.557,338.379,-26.855,-31.250,124.512
1613698915.589,-61.523,-24.902,-30.273,-10.742
1613698915.593,-325.195,-21.973,-21.484,-116.699
1613698915.597,-9.277,-26.367,-21.973,-11.719
1613698915.601,350.586,-33.691,-29.297,119.141
1613698915.605,66.895,-34.180,-32.715,42.969
1613698915.609,-322.754,-28.320,-27.832,-98.633
1613698915.613,-131.348,-20.020,-23.438,-43.945
1613698915.616,326.660,-11.230,-20.508,128.418
1613698915.620,231.445,-12.207,-12.207,109.375
1613698915.624,-258.301,-16.113,-12.207,-82.031
1613698915.628,-261.719,-14.648,-18.066,-107.422
1613698915.632,195.801,-18.066,-17.578,52.246
1613698915.609,253.418,-18.066,-17.578,91.309
1613698915.613,-175.293,-12.207,-15.137,-48.828
1613698915.617,-316.895,-7.812,-11.230,-108.398
1613698915.621,81.543,-5.859,-15.137,18.066
1613698915.625,354.004,-3.906,-12.207,121.094
1613698915.629,-26.855,-4.883,-6.348,4.395
1613698915.633,-327.637,-4.395,-6.348,-109.375
1613698915.636,-41.992,-0.977,-8.301,-23.926
1613698915.640,346.680,0.000,-10.254,121.094
1613698915.644,104.492,2.441,-8.789,60.059
1613698915.648,-302.246,9.277,-5.859,-81.543
1613698915.652,-161.133,13.672,-6.348,-54.199
1613698915.649,288.086,15.137,-5.371,95.215
1613698915.653,231.934,14.160,1.465,100.098
1613698915.657,-235.352,13.672,2.930,-60.547
1613698915.661,-262.207,13.672,-1.465,-93.750
1613698915.665,187.988,8.789,0.977,52.734
1613698915.669,314.941,2.441,2.441,113.281
1613698915.673,-129.883,3.418,11.230,-25.391
1613698915.676,-330.078,4.883,22.949,-111.328
1613698915.680,48.340,1.953,25.391,2.930
1613698915.684,349.609,-0.488,22.461,118.164
1613698915.688,-1.953,-2.441,20.508,11.719
1613698915.692,-332.031,-1.953,19.043,-114.258
1613698915.709,-75.684,2.441,11.230,-43.457
1613698915.713,325.195,5.859,-8.301,109.863
1613698915.717,127.930,4.883,-14.648,62.500
1613698915.721,-283.203,6.836,-9.277,-88.379
1613698915.725,-184.570,10.742,-0.488,-67.383
1613698915.729,273.926,12.207,20.020,87.891
1613698915.733,274.902,12.695,32.715,107.422
1613698915.736,-194.824,11.230,31.250,-43.457
1613698915.740,-280.273,10.254,28.320,-86.914
1613698915.744,173.828,12.695,25.879,86.914
1613698915.748,368.652,16.602,32.715,179.688
1613698915.752,-100.586,14.648,35.156,-9.277
1613698915.754,-345.703,15.137,30.273,-118.164
1613698915.758,-9.277,13.672,35.645,-21.973
1613698915.762,308.594,4.883,35.156,82.031
1613698915.766,-13.184,1.465,35.156,-17.090
1613698915.770,-394.043,-3.906,42.480,-165.527
1613698915.774,-145.020,-3.418,44.922,-91.797
1613698915.778,240.234,-1.465,38.574,32.227
1613698915.781,73.242,-3.906,43.457,-10.742
1613698915.785,-356.934,0.977,50.781,-159.668
1613698915.789,-318.359,2.441,40.039,-178.223
1613698915.793,163.574,-1.953,40.039,-5.371
1613698915.797,210.449,0.977,40.039,36.133
1613698915.799,-263.672,1.465,17.090,-124.023
1613698915.803,-370.117,2.441,-4.395,-170.410
1613698915.807,70.801,12.207,-4.395,-22.949
1613698915.811,295.410,17.578,-1.465,69.824
1613698915.815,-120.605,15.137,3.906,-56.152
1613698915.819,-375.000,12.695,9.766,-142.578
1613698915.823,-41.504,14.648,13.184,-30.762
1613698915.826,328.613,14.160,8.789,107.910
1613698915.830,56.641,14.160,7.324,37.598
1613698915.834,-321.777,16.113,10.742,-97.168
1613698915.838,-133.789,20.996,16.113,-48.828
1613698915.842,308.105,17.578,29.297,114.746
1613698915.844,209.473,15.137,28.809,100.586
1613698915.848,-239.258,17.090,25.391,-58.594
1613698915.852,-218.262,23.438,37.598,-64.453
1613698915.856,249.512,20.996,40.039,90.820
1613698915.860,341.797,21.973,38.086,131.836
1613698915.864,-121.582,24.414,38.574,-18.555
1613698915.868,-274.414,23.438,36.133,-77.637
1613698915.871,128.418,27.832,36.621,57.617
1613698915.875,388.184,26.855,37.109,158.691
1613698915.879,24.902,26.855,13.672,41.992
1613698915.883,-275.879,33.203,-20.020,-64.453
1613698915.887,-2.441,30.762,-34.180,14.648
1613698915.889,391.602,29.297,-23.438,155.762
1613698915.893,162.109,30.762,0.977,93.262
1613698915.897,-244.141,31.250,7.812,-58.594
1613698915.901,-110.352,35.156,6.348,-27.344
1613698915.905,341.797,35.645,12.207,129.883
1613698915.909,292.480,34.668,19.043,134.277
1613698915.913,-173.340,36.621,20.996,-19.531
1613698915.916,-215.332,30.273,24.414,-41.992
1613698915.920,238.281,28.809,25.879,109.375
1613698915.924,384.766,35.156,30.273,164.551
1613698915.928,-59.570,35.645,35.156,24.902
1613698915.932,-268.066,33.203,29.785,-45.898
1613698915.934,107.910,29.297,15.625,61.035
1613698915.938,412.109,22.949,10.254,173.340
1613698915.942,54.688,22.949,14.160,67.871
1613698915.946,-283.203,29.297,17.090,-63.477
1613698915.950,-29.785,32.227,18.066,12.695
1613698915.954,379.395,38.086,22.949,156.738
1613698915.958,188.477,42.969,27.344,107.910
1613698915.961,-236.328,36.621,27.344,-40.039
1613698915.965,-141.113,31.738,21.484,-23.926
1613698915.969,314.941,31.738,18.066,132.812
1613698915.973,308.594,37.109,26.367,157.715
1613698915.977,-158.691,36.133,25.879,-6.836
1613698915.979,-231.445,30.273,21.484,-66.895
1613698915.983,208.496,34.180,25.879,85.449
1613698915.987,393.555,41.504,31.738,172.852
1613698915.991,-43.457,41.016,33.691,28.809
1613698915.995,-289.062,36.133,30.762,-61.523
1613698915.999,53.711,32.715,30.762,47.852
1613698916.003,387.207,35.645,33.203,172.363
1613698916.006,72.266,36.133,32.227,74.707
1613698916.010,-285.645,34.668,24.902,-60.059
1613698916.014,-71.289,29.297,2.930,0.488
1613698916.018,348.633,19.043,-13.672,153.320
1613698916.022,205.078,23.438,-1.465,119.629
1613698916.025,-235.840,25.391,18.066,-40.527
1613698916.029,-182.129,19.043,26.367,-36.621
1613698916.033,284.668,23.438,35.156,124.512
1613698916.037,342.285,25.879,35.645,161.621
1613698916.041,-106.445,27.832,37.598,20.996
1613698916.045,-264.160,22.461,42.480,-57.129
1613698916.049,134.766,19.531,42.969,64.941
1613698916.052,380.859,21.973,40.527,167.969
1613698916.056,-28.320,23.438,37.109,36.133
1613698916.060,-300.781,22.949,40.039,-61.035
1613698916.064,23.438,19.043,42.969,40.039
1613698916.068,392.578,21.973,44.434,172.363
1613698916.085,114.258,26.367,47.363,88.867
1613698916.089,-278.320,27.832,50.293,-52.246
1613698916.093,-94.727,25.879,49.805,-1.953
1613698916.097,332.031,22.461,43.945,147.461
1613698916.101,230.469,22.461,43.457,128.906
1613698916.105,-222.656,22.949,46.387,-28.809
1613698916.109,-216.797,23.438,39.551,-50.293
1613698916.112,243.164,15.137,32.715,93.750
1613698916.116,340.332,15.137,34.668,146.484
1613698916.120,-119.141,21.973,32.227,-5.859
1613698916.124,-280.762,19.531,28.809,-80.566
1613698916.128,122.559,13.672,29.785,53.711
1613698916.133,389.648,14.648,27.832,155.273
1613698916.137,1.465,16.602,8.301,37.109
1613698916.141,-305.664,12.207,-14.160,-79.102
1613698916.145,12.207,4.395,-17.090,9.766
1613698916.149,335.938,3.906,2.930,131.348
1613698916.153,151.855,3.906,14.648,75.195
1613698916.157,251.953,5.859,19.531,113.281
1613698916.160,71.777,9.277,26.855,69.336
1613698916.164,-305.176,13.184,22.949,-79.102
1613698916.168,-33.203,18.066,18.555,-12.207
1613698916.172,366.699,11.230,15.137,134.277
1613698916.176,163.574,6.836,17.578,73.730
1613698916.174,-279.785,8.301,22.461,-84.473
1613698916.178,-133.301,4.883,17.578,-41.992
1613698916.182,344.238,8.301,18.066,119.629
1613698916.186,256.348,12.207,20.020,105.957
1613698916.190,-206.543,16.113,19.531,-49.805
1613698916.194,-257.812,17.578,16.602,-85.938
1613698916.198,175.293,14.160,15.137,67.871
1613698916.201,338.379,16.602,18.066,136.230
1613698916.205,-80.566,22.949,19.043,-6.836
1613698916.209,-290.039,22.949,19.531,-92.773
1613698916.213,63.965,25.879,8.789,25.879
1613698916.217,378.418,27.344,-10.742,153.809
1613698916.223,52.734,26.367,-21.973,52.734
1613698916.227,-290.527,37.109,-10.254,-83.496
1613698916.231,-53.711,41.016,12.695,-20.996
1613698916.235,365.723,33.203,19.531,132.324
1613698916.239,191.406,32.715,17.578,92.285
1613698916.243,-260.254,36.621,16.113,-69.824
1613698916.247,-187.500,41.016,15.625,-62.500
1613698916.250,277.832,43.945,15.137,97.168
1613698916.254,296.387,45.410,17.090,118.164
1613698916.258,-170.898,42.969,23.926,-31.738
1613698916.262,-262.695,34.668,17.578,-81.055
1613698916.266,177.246,31.738,13.672,63.477
1613698916.279,370.117,37.109,27.832,156.250
1613698916.283,-62.988,42.480,30.762,6.836
1613698916.287,-319.824,37.598,20.508,-105.469
1613698916.291,2.441,32.715,13.184,-2.441
1613698916.295,365.723,41.992,19.043,136.719
1613698916.299,85.449,42.480,24.414,66.406
1613698916.303,-302.734,35.156,7.324,-73.242
1613698916.306,-103.516,36.133,-16.113,-24.902
1613698916.310,334.961,33.203,-30.273,127.930
1613698916.314,204.590,27.832,-26.855,104.980
1613698916.318,-237.793,38.086,-3.906,-40.039
1613698916.322,-185.547,51.270,22.461,-34.180
1613698916.339,271.973,60.059,33.691,120.117
1613698916.343,334.961,61.523,34.180,155.273
1613698916.347,-124.512,59.570,34.180,4.883
1613698916.351,-260.742,64.453,41.992,-45.898
1613698916.355,143.555,65.430,42.480,81.543
1613698916.359,386.719,65.430,35.645,166.992
1613698916.363,9.766,63.477,33.691,40.527
1613698916.366,-286.621,57.617,31.738,-76.172
1613698916.370,3.906,57.617,25.391,15.137
1613698916.374,389.160,54.688,23.926,150.879
1613698916.378,132.324,47.852,27.344,76.660
1613698916.382,-287.598,41.504,30.273,-63.477
1613698916.385,-145.508,33.203,21.484,-29.785
1613698916.389,304.199,26.367,-2.930,120.117
1613698916.393,226.562,28.320,-21.973,106.445
1613698916.397,-245.605,22.949,-13.672,-63.477
1613698916.401,-259.766,15.137,4.883,-84.473
1613698916.405,193.848,19.531,6.348,61.523
1613698916.409,302.246,18.066,4.883,106.934
1613698916.412,-153.320,10.742,6.836,-43.457
1613698916.416,-328.613,10.254,10.254,-124.023
1613698916.420,61.523,8.301,4.883,-1.465
1613698916.424,333.984,-1.465,-8.789,105.957
1613698916.428,-29.297,-4.395,-14.160,-15.137
1613698916.429,-342.285,-1.465,-16.602,-135.742
1613698916.433,-75.195,-3.906,-14.648,-53.711
1613698916.437,326.172,-3.906,-11.230,91.797
1613698916.441,104.004,1.465,-9.766,29.297
1613698916.445,-327.148,-0.488,-13.184,-117.188
1613698916.449,-192.383,-0.488,-32.227,-79.102
1613698916.453,264.648,2.441,-48.828,79.102
1613698916.456,232.910,1.953,-45.898,76.660
1613698916.460,-222.656,2.930,-31.738,-85.449
1613698916.464,-271.973,1.465,-22.949,-118.164
1613698916.468,152.832,0.977,-16.113,23.926
1613698916.472,297.363,8.301,-20.020,96.191
1613698916.520,-135.742,6.348,-29.297,-51.270
1613698916.524,-347.168,-4.395,-29.297,-144.531
1613698916.528,9.277,-8.301,-27.344,-28.320
1613698916.532,321.289,-11.230,-23.438,85.938
1613698916.536,1.953,-13.672,-21.973,-11.230
1613698916.540,-349.609,-10.742,-21.973,-133.301
1613698916.544,-117.676,-8.301,-20.508,-63.477
1613698916.547,312.012,-6.348,-20.996,96.191
1613698916.551,142.578,-2.930,-45.410,53.223
1613698916.555,-308.594,0.977,-74.219,-105.957
1613698916.559,-236.328,1.465,-67.383,-90.332
1613698916.563,225.586,3.906,-46.387,70.801
1613698916.526,245.117,8.789,-34.668,89.844
1613698916.530,-216.797,9.277,-34.180,-67.871
1613698916.534,-306.641,3.906,-33.691,-111.816
1613698916.538,123.535,11.719,-27.344,32.227
1613698916.542,327.148,21.484,-32.227,108.887
1613698916.546,-88.379,15.625,-37.598,-27.344
1613698916.550,-338.379,12.207,-32.715,-121.582
1613698916.553,-8.789,4.395,-37.598,-26.855
1613698916.557,352.051,3.418,-44.434,111.816
1613698916.561,69.824,7.324,-42.480,41.992
1613698916.565,-338.867,-0.977,-34.180,-126.465
1613698916.569,-151.855,-8.789,-43.945,-86.914
1613698916.551,292.480,-9.766,-62.988,77.637
1613698916.555,166.016,-5.859,-65.430,49.805
1613698916.559,-289.062,-2.441,-53.711,-113.770
1613698916.563,-258.789,-7.324,-36.133,-118.652
1613698916.567,196.289,-12.695,-24.902,45.898
1613698916.571,264.648,-10.742,-15.137,87.891
1613698916.575,-192.871,-8.789,-13.184,-65.918
1613698916.578,-331.055,-10.742,-15.625,-122.559
1613698916.582,68.848,-14.160,-14.160,11.230
1613698916.586,303.711,-13.184,-13.672,106.934
1613698916.590,-86.914,-13.672,-17.090,-18.555
1613698916.594,-378.418,-13.184,-15.625,-131.348
1613698916.609,-73.242,-11.230,-18.066,-36.133
1613698916.613,309.082,-11.719,-19.531,95.703
1613698916.617,47.363,-17.090,-38.574,16.113
1613698916.621,-362.793,-24.414,-65.918,-128.906
1613698916.625,-208.008,-16.113,-67.383,-87.891
1613698916.629,246.582,-6.348,-52.734,81.055
1613698916.633,176.270,-11.719,-36.133,67.871
1613698916.636,-281.738,-16.602,-30.273,-99.121
1613698916.640,-290.039,-14.648,-28.809,-113.281
1613698916.644,163.086,-15.625,-25.391,30.762
1613698916.648,274.414,-16.113,-26.855,79.102
1613698916.652,-171.875,-9.277,-25.879,-64.453
1613698916.654,-342.773,-3.906,-19.531,-127.441
1613698916.658,37.598,-9.766,-24.414,-3.418
1613698916.662,325.195,-4.883,-25.391,103.027
1613698916.666,-42.969,-2.441,-25.391,-12.695
1613698916.670,-369.629,6.836,-17.090,-125.977
1613698916.674,-95.703,21.973,-20.508,-25.879
1613698916.678,309.570,20.508,-36.621,112.793
1613698916.681,99.121,18.555,-37.598,41.992
1613698916.685,-342.285,14.160,-31.738,-110.840
1613698916.689,-230.469,15.137,-22.949,-86.426
1613698916.693,233.887,13.672,-20.020,66.895
1613698916.697,196.777,14.160,-20.020,72.754
1613698916.701,-266.602,21.484,-18.066,-87.402
1613698916.705,-315.430,19.531,-17.090,-121.582
1613698916.709,121.582,13.184,-21.484,20.996
1613698916.713,277.832,12.207,-25.391,92.285
1613698916.717,-149.414,12.695,-26.855,-44.922
1613698916.721,-364.258,10.254,-26.855,-135.742
1613698916.725,-2.441,6.836,-21.973,-26.367
1613698916.728,316.406,1.953,-37.109,89.844
1613698916.732,-15.625,2.441,-57.129,-6.836
1613698916.736,-367.676,0.000,-58.105,-138.184
1613698916.740,-136.230,-5.859,-50.781,-84.473
1613698916.744,295.898,-4.883,-35.645,67.871
1613698916.744,126.953,-4.883,-30.762,30.273
1613698916.748,-317.871,-5.859,-38.086,-131.348
1613698916.752,-246.094,-7.812,-37.598,-125.488
1613698916.756,213.867,-15.137,-40.527,35.645
1613698916.760,236.328,-12.207,-46.387,58.594
1613698916.764,-233.398,-6.348,-44.434,-102.539
1613698916.768,-328.125,-13.184,-47.363,-149.902
1613698916.771,94.727,-18.066,-52.734,-13.184
1613698916.775,282.715,-12.207,-52.246,67.383
1613698916.779,-124.512,-13.184,-56.152,-71.777
1613698916.783,-371.094,-15.625,-68.359,-158.203
1613698916.787,-44.434,-15.625,-85.938,-52.246
1613698916.805,318.359,-20.508,-86.426,73.730
1613698916.809,53.223,-19.043,-66.406,9.277
1613698916.813,-357.910,-16.602,-44.922,-155.273
1613698916.817,-211.426,-25.879,-39.551,-135.742
1613698916.821,247.559,-29.785,-41.504,37.598
1613698916.825,132.812,-26.367,-30.762,3.418
1613698916.829,-337.891,-27.832,-29.297,-172.852
1613698916.832,-309.082,-26.855,-37.598,-173.340
1613698916.836,141.602,-37.109,-51.758,-26.367
1613698916.840,216.797,-31.738,-52.734,18.555
1613698916.844,-236.816,-26.855,-46.387,-118.164
1613698916.848,-372.070,-35.645,-49.316,-180.664
1613698916.864,42.480,-40.039,-54.688,-57.129
1613698916.868,288.574,-42.969,-72.266,48.828
1613698916.872,-98.633,-42.480,-88.867,-74.219
1613698916.876,-388.184,-41.504,-84.473,-192.383
1613698916.880,-81.055,-39.062,-67.383,-87.402
1613698916.884,308.594,-36.133,-50.781,60.547
1613698916.888,47.363,-32.715,-50.781,-16.602
1613698916.891,-367.676,-34.668,-49.316,-155.273
1613698916.895,-203.613,-37.109,-48.828,-116.699
1613698916.899,258.301,-36.621,-57.617,35.645
1613698916.903,172.363,-37.109,-58.594,37.598
1613698916.907,-300.293,-40.527,-55.664,-120.117
1613698916.884,-306.152,-40.039,-59.082,-150.391
1613698916.888,147.949,-38.574,-60.547,-0.977
1613698916.892,257.324,-41.504,-55.176,63.965
1613698916.896,-195.801,-41.992,-53.223,-93.262
1613698916.900,-380.371,-40.527,-77.637,-179.199
1613698916.904,6.348,-41.504,-106.934,-46.387
1613698916.908,275.879,-38.086,-108.398,60.059
1613698916.911,-89.844,-32.227,-88.379,-52.734
1613698916.915,-389.648,-35.156,-71.777,-167.969
1613698916.919,-123.047,-34.180,-69.336,-91.797
1613698916.923,284.668,-36.621,-67.871,54.688
1613698916.927,77.637,-45.898,-67.383,0.488
1613698916.925,-358.398,-48.828,-66.406,-153.320
1613698916.929,-245.605,-44.434,-64.453,-124.512
1613698916.933,217.773,-36.133,-56.152,38.574
1613698916.937,184.570,-39.551,-53.223,37.109
1613698916.941,-292.480,-41.504,-57.617,-122.559
1613698916.945,-349.609,-43.457,-62.500,-146.973
1613698916.949,93.750,-44.434,-60.059,1.465
1613698916.952,254.395,-36.133,-58.594,60.059
1613698916.956,-179.199,-32.227,-84.961,-80.566
1613698916.960,-397.461,-35.156,-105.469,-167.480
1613698916.964,-31.250,-36.621,-97.168,-55.176
1613698916.968,291.504,-32.715,-75.195,67.871
1613698917.001,-36.621,-30.762,-57.617,-28.809
1613698917.005,-392.090,-37.109,-50.293,-161.621
1613698917.009,-163.574,-39.551,-50.293,-97.168
1613698917.013,271.973,-40.527,-54.199,58.105
1613698917.017,101.074,-43.457,-48.828,16.113
1613698917.021,-358.398,-41.016,-45.410,-136.719
1613698917.025,-286.133,-41.992,-51.270,-133.789
1613698917.028,192.871,-43.945,-56.152,25.391
1613698917.032,214.355,-42.969,-52.734,43.457
1613698917.036,-260.742,-38.574,-43.457,-122.070
1613698917.040,-350.098,-36.133,-46.875,-174.805
1613698917.044,80.566,-36.621,-55.176,-32.715
1613698917.044,288.086,-33.691,-54.688,61.523
1613698917.048,-134.766,-28.809,-70.312,-70.312
1613698917.052,-365.234,-28.809,-90.820,-157.227
1613698917.056,-17.578,-33.203,-94.238,-44.922
1613698917.060,308.105,-31.250,-78.125,77.637
1613698917.064,16.113,-27.344,-54.199,-12.207
1613698917.068,-372.070,-29.297,-45.898,-154.297
1613698917.071,-182.617,-31.250,-45.898,-99.609
1613698917.075,265.625,-29.785,-44.434,61.035
1613698917.079,139.648,-34.668,-45.898,28.320
1613698917.083,-327.637,-39.062,-50.293,-140.137
1613698917.087,-296.387,-38.086,-49.316,-144.531
1613698917.075,161.133,-40.039,-50.293,18.555
1613698917.079,232.422,-36.133,-46.875,60.059
1613698917.083,-222.656,-37.598,-45.410,-98.145
1613698917.087,-367.676,-43.945,-54.199,-161.621
1613698917.091,43.945,-38.574,-55.664,-33.203
1613698917.095,291.504,-35.156,-45.410,68.359
1613698917.099,-100.586,-31.738,-46.387,-52.246
1613698917.102,-391.602,-31.738,-64.941,-163.574
1613698917.106,-80.566,-31.738,-71.777,-66.406
1613698917.110,313.477,-24.414,-62.500,82.520
1613698917.114,58.105,-25.391,-52.734,1.953
1613698917.118,-361.816,-32.715,-46.875,-160.645
1613698917.119,-214.844,-40.039,-37.598,-118.164
1613698917.123,255.371,-43.457,-37.109,42.969
1613698917.127,180.664,-39.551,-36.621,26.855
1613698917.131,-292.969,-33.691,-31.250,-128.906
1613698917.135,-298.828,-32.227,-26.367,-140.137
1613698917.139,162.109,-32.715,-26.855,14.648
1613698917.143,276.367,-28.809,-30.762,69.336
1613698917.146,-182.129,-27.832,-31.250,-80.566
1613698917.150,-359.863,-34.180,-31.250,-148.926
1613698917.154,37.598,-32.227,-30.762,-31.738
1613698917.158,325.195,-31.250,-30.762,72.754
1613698917.162,-39.062,-32.227,-33.203,-38.086
1613698917.166,-366.211,-33.203,-29.785,-161.133
1613698917.170,-96.191,-39.062,-44.922,-83.984
1613698917.174,306.641,-39.062,-72.754,65.918
1613698917.178,82.031,-32.715,-84.473,5.371
1613698917.182,-348.145,-30.273,-82.031,-157.227
1613698917.186,-238.281,-34.180,-61.035,-131.836
1613698917.190,233.398,-38.574,-47.852,52.734
1613698917.193,222.656,-32.227,-46.387,79.102
1613698917.197,-264.160,-22.461,-50.293,-112.793
1613698917.201,-326.172,-29.297,-56.152,-163.574
1613698917.205,119.629,-31.250,-56.641,-1.465
1613698917.209,267.090,-26.855,-60.547,58.105
1613698917.240,-167.969,-31.250,-62.988,-83.008
1613698917.244,-369.629,-33.691,-59.082,-150.391
1613698917.248,-6.348,-40.527,-66.895,-33.691
1613698917.252,308.594,-36.133,-70.312,85.938
1613698917.256,-15.137,-28.320,-68.848,-16.113
1613698917.260,-379.395,-36.133,-70.312,-151.367
1613698917.264,-154.785,-41.016,-69.824,-81.055
1613698917.267,278.809,-40.527,-72.266,77.637
1613698917.271,119.629,-35.156,-70.312,34.668
1613698917.275,-325.684,-29.297,-75.195,-118.652
1613698917.279,-257.812,-29.785,-99.121,-109.863
1613698917.283,206.543,-29.297,-111.816,42.969
1613698917.256,229.492,-26.367,-97.656,67.871
1613698917.260,-234.375,-25.391,-73.242,-84.961
1613698917.264,-330.566,-34.668,-59.570,-136.230
1613698917.268,85.938,-44.434,-54.199,0.977
1613698917.272,288.574,-45.410,-53.711,85.449
1613698917.276,-126.953,-43.457,-61.523,-50.781
1613698917.280,-385.254,-44.434,-68.848,-152.344
1613698917.283,-51.758,-48.340,-71.289,-53.711
1613698917.287,303.711,-48.340,-69.824,79.590
1613698917.291,19.043,-42.480,-64.941,2.441
1613698917.295,-374.512,-45.898,-66.406,-139.160
1613698917.299,-186.523,-47.363,-69.824,-96.191
1613698917.299,266.113,-45.410,-72.266,58.594
1613698917.303,146.973,-47.363,-71.777,37.109
1613698917.307,-315.918,-46.875,-69.824,-125.977
1613698917.311,-287.109,-43.945,-69.824,-137.207
1613698917.315,168.945,-40.039,-70.312,19.531
1613698917.319,246.094,-36.621,-62.500,68.848
1613698917.323,-215.820,-46.875,-59.570,-87.891
1613698917.326,-360.840,-50.293,-74.707,-160.156
1613698917.330,51.758,-44.922,-90.820,-24.414
1613698917.334,305.664,-42.480,-90.820,79.590
1613698917.338,-72.754,-41.504,-86.914,-45.410
1613698917.342,-374.512,-43.457,-67.383,-159.180
1613698917.361,-81.543,-37.598,-49.805,-62.012
1613698917.365,306.152,-40.527,-47.852,72.266
1613698917.369,53.711,-47.363,-51.270,-8.789
1613698917.373,-354.980,-48.828,-50.293,-157.227
1613698917.377,-216.309,-59.082,-56.641,-122.559
1613698917.381,230.957,-62.988,-60.547,33.691
1613698917.385,166.992,-53.711,-49.316,30.273
1613698917.388,-294.922,-50.781,-48.340,-130.371
1613698917.392,-309.082,-53.223,-52.246,-151.367
1613698917.396,118.164,-54.688,-51.758,-0.977
1613698917.400,234.375,-58.594,-52.246,51.758
1613698917.404,-193.848,-62.988,-52.734,-92.773
1613698917.404,-384.277,-67.871,-56.641,-169.434
1613698917.408,-5.859,-75.195,-55.664,-48.340
1613698917.412,287.598,-74.219,-57.617,60.547
1613698917.416,-70.801,-69.824,-58.594,-52.734
1613698917.420,-406.250,-68.359,-54.688,-175.781
1613698917.424,-143.066,-64.941,-50.781,-91.309
1613698917.428,267.090,-61.035,-46.875,48.828
1613698917.431,63.477,-57.617,-62.500,-23.926
1613698917.435,-370.117,-56.641,-84.473,-172.852
1613698917.439,-267.578,-55.664,-85.449,-142.090
1613698917.443,201.660,-54.199,-68.848,13.672
1613698917.447,185.547,-53.223,-49.805,24.414
1613698917.480,-291.504,-58.105,-55.176,-139.648
1613698917.484,-353.516,-62.988,-62.988,-184.082
1613698917.488,89.844,-61.035,-61.523,-38.574
1613698917.492,255.859,-59.570,-65.918,36.133
1613698917.496,-179.199,-57.129,-68.848,-102.539
1613698917.500,-397.461,-61.035,-71.289,-194.824
1613698917.504,-38.574,-65.430,-70.801,-84.473
1613698917.507,278.809,-62.988,-67.871,41.016
1613698917.511,-36.621,-58.105,-65.430,-54.199
1613698917.515,-381.836,-51.758,-62.500,-181.641
1613698917.519,-163.574,-47.852,-64.941,-118.164
1613698917.523,256.348,-52.246,-63.477,39.062
1613698917.496,103.516,-56.641,-51.270,5.859
1613698917.500,-340.820,-54.199,-46.387,-148.438
1613698917.504,-274.902,-49.316,-47.363,-137.207
1613698917.508,181.641,-47.363,-41.016,15.137
1613698917.512,207.031,-47.852,-37.109,38.086
1613698917.516,-248.535,-42.969,-33.203,-111.328
1613698917.520,-343.262,-38.574,-33.203,-153.320
1613698917.523,72.754,-37.598,-32.715,-5.859
1613698917.527,275.879,-41.504,-30.762,72.754
1613698917.531,-130.859,-42.480,-45.898,-67.871
1613698917.535,-394.531,-45.410,-71.289,-166.504
1613698917.539,-70.801,-51.758,-79.590,-66.895
1613698917.569,284.668,-54.199,-63.477,67.383
1613698917.573,7.812,-44.434,-46.875,-14.160
1613698917.577,-379.883,-41.504,-41.504,-158.203
1613698917.581,-191.406,-42.969,-34.668,-98.145
1613698917.585,258.301,-37.598,-38.574,59.082
1613698917.589,145.996,-35.645,-48.340,27.832
1613698917.593,-316.406,-34.180,-46.875,-134.277
1613698917.596,-272.461,-33.203,-50.293,-128.906
1613698917.600,188.965,-32.715,-55.664,35.645
1613698917.604,229.980,-30.762,-51.270,55.664
1613698917.608,-222.656,-32.227,-51.758,-96.191
1613698917.612,-361.328,-30.273,-57.617,-152.832
1613698917.586,41.992,-27.344,-61.523,-30.762
1613698917.590,287.598,-23.438,-64.453,64.941
1613698917.594,-88.867,-23.926,-65.430,-47.852
1613698917.598,-381.348,-28.320,-66.406,-154.785
1613698917.602,-94.238,-29.297,-71.289,-72.266
1613698917.606,290.039,-36.133,-74.219,67.871
1613698917.610,37.598,-44.922,-76.660,-1.953
1613698917.613,-372.070,-39.551,-74.707,-151.855
1613698917.617,-221.680,-32.227,-71.777,-119.141
1613698917.621,233.398,-34.180,-72.266,35.156
1613698917.625,161.621,-33.203,-69.824,24.414
1613698917.629,-306.152,-37.598,-67.871,-140.625
1613698917.632,-320.801,-48.340,-72.754,-162.598
1613698917.636,124.023,-46.387,-72.754,-10.254
1613698917.640,249.512,-40.527,-82.031,50.781
1613698917.644,-186.035,-35.645,-99.121,-95.703
1613698917.648,-371.582,-37.598,-100.098,-176.270
1613698917.652,0.977,-40.527,-86.914,-43.457
1613698917.656,282.227,-38.574,-73.242,74.219
1613698917.659,-66.406,-38.086,-67.871,-41.504
1613698917.663,-387.207,-41.504,-67.383,-176.270
1613698917.667,-133.301,-38.574,-60.547,-103.027
1613698917.671,270.996,-35.156,-57.617,48.828
1613698917.675,76.172,-40.039,-63.965,-6.348
1613698917.689,-347.656,-42.969,-59.082,-158.203
1613698917.693,-252.441,-42.969,-59.082,-143.066
1613698917.697,199.219,-40.039,-63.965,16.113
1613698917.701,183.594,-44.434,-62.500,38.574
1613698917.705,-273.438,-51.270,-60.059,-120.605
1613698917.709,-334.961,-45.898,-59.082,-155.762
1613698917.713,91.309,-44.922,-58.105,-9.766
1613698917.716,264.160,-49.805,-54.688,59.082
1613698917.720,-149.414,-44.434,-47.852,-76.660
1613698917.724,-370.605,-41.504,-48.340,-166.504
1613698917.728,-25.391,-46.387,-50.781,-57.617
1613698917.732,297.363,-45.898,-47.852,64.941
1613698917.735,-9.766,-45.898,-44.922,-21.973
1613698917.739,-366.211,-52.246,-43.457,-152.344
1613698917.743,-145.508,-52.734,-43.457,-99.121
1613698917.747,283.691,-52.734,-44.922,51.758
1613698917.751,125.488,-51.758,-44.922,17.578
1613698917.755,-318.848,-54.199,-41.992,-139.648
1613698917.759,-250.000,-51.270,-39.062,-128.906
1613698917.762,207.520,-44.922,-41.016,27.344
1613698917.766,226.562,-51.270,-44.922,48.828
1613698917.770,-239.258,-52.246,-42.969,-94.727
1613698917.774,-340.820,-52.734,-54.199,-146.973
1613698917.778,80.566,-60.547,-74.707,-18.555
1613698917.794,291.016,-61.035,-81.543,67.383
1613698917.798,-118.652,-60.059,-66.406,-62.500
1613698917.802,-378.906,-64.453,-41.992,-159.668
1613698917.806,-56.152,-62.500,-29.297,-58.105
1613698917.810,300.781,-56.641,-25.391,70.312
1613698917.814,18.066,-58.105,-27.832,-14.160
1613698917.818,-365.723,-62.500,-36.133,-157.715
1613698917.821,-177.246,-62.500,-37.109,-110.840
1613698917.825,252.441,-63.477,-34.180,40.527
1613698917.829,139.648,-64.453,-40.039,20.508
1613698917.833,-306.641,-61.523,-42.969,-142.090
1613698917.837,-291.016,-63.477,-44.434,-154.785
1613698917.824,156.738,-68.848,-44.922,4.883
1613698917.828,232.910,-64.941,-37.109,52.734
1613698917.832,-217.773,-62.012,-34.668,-98.633
1613698917.836,-356.934,-61.523,-36.621,-155.762
1613698917.840,32.227,-59.082,-36.133,-28.809
1613698917.844,271.973,-59.082,-36.133,61.035
1613698917.848,-89.355,-54.199,-31.738,-51.270
1613698917.851,-381.348,-47.852,-25.391,-158.691
1613698917.855,-99.121,-53.711,-28.320,-73.730
1613698917.859,285.156,-56.641,-31.250,62.988
1613698917.863,41.016,-54.199,-30.762,-5.859
1613698917.867,-365.234,-56.152,-30.762,-146.973
1613698917.869,-216.797,-53.711,-32.227,-107.422
1613698917.873,235.840,-50.293,-42.969,49.805
1613698917.877,175.781,-48.340,-46.387,43.945
1613698917.881,-284.180,-51.270,-47.363,-110.840
1613698917.885,-315.430,-56.152,-47.852,-128.418
1613698917.889,121.094,-54.688,-51.758,11.719
1613698917.893,248.047,-55.176,-51.758,63.477
1613698917.896,-194.336,-60.059,-48.340,-76.660
1613698917.900,-378.906,-65.430,-48.828,-159.180
1613698917.904,0.488,-63.965,-46.387,-43.945
1613698917.908,292.480,-66.406,-44.922,79.590
1613698917.912,-51.758,-70.312,-41.992,-26.855
1613698917.916,-386.719,-65.430,-46.387,-160.156
1613698917.920,-133.301,-64.941,-67.871,-89.844
1613698917.924,277.344,-68.359,-74.707,58.594
1613698917.928,80.078,-63.965,-68.848,14.160
1613698917.932,-348.633,-56.641,-56.641,-136.230
1613698917.936,-247.070,-57.617,-35.645,-125.000
1613698917.940,209.473,-63.477,-28.809,31.250
1613698917.943,195.801,-63.477,-24.902,53.711
1613698917.947,-270.020,-61.035,-20.996,-109.863
1613698917.951,-336.914,-64.453,-21.973,-156.250
1613698917.955,91.797,-69.336,-22.461,-10.742
1613698917.959,262.695,-67.383,-21.973,57.617
1613698917.959,-153.320,-59.570,-11.719,-80.078
1613698917.963,-385.742,-60.059,-5.859,-173.828
1613698917.967,-39.551,-60.547,-0.977,-60.059
1613698917.971,296.875,-60.059,12.695,73.730
1613698917.975,-14.648,-58.594,19.043,-20.996
1613698917.979,-387.207,-68.359,8.789,-167.969
1613698917.983,-176.758,-70.312,9.277,-104.492
1613698917.986,255.371,-62.012,14.648,58.105
1613698917.990,114.746,-62.012,10.742,15.137
1613698917.994,-326.660,-63.965,8.301,-144.043
1613698917.998,-278.809,-62.500,2.930,-141.602
1613698918.002,191.406,-59.570,1.953,20.508
1613698918.034,239.258,-59.570,3.906,64.941
1613698918.038,-208.496,-53.711,3.906,-72.754
1613698918.042,-338.867,-50.781,-1.465,-156.738
1613698918.046,56.152,-55.176,-7.324,-44.434
1613698918.050,287.109,-53.711,-11.230,58.594
1613698918.054,-115.723,-51.270,-10.254,-71.289
1613698918.058,-376.953,-51.270,-9.277,-158.691
1613698918.061,-58.105,-54.688,-13.184,-58.105
1613698918.065,307.617,-53.223,-15.625,70.312
1613698918.069,38.574,-47.363,-16.602,-13.672
1613698918.073,-348.145,-46.387,-21.973,-153.809
1613698918.077,-166.016,-44.922,-28.809,-96.680
1613698918.050,268.066,-48.340,-29.297,64.941
1613698918.054,156.250,-54.688,-28.320,44.434
1613698918.058,-288.086,-52.246,-26.855,-114.258
1613698918.062,-264.160,-51.270,-28.320,-120.605
1613698918.066,181.641,-56.641,-26.367,40.527
1613698918.070,253.906,-59.082,-22.461,86.914
1613698918.074,-205.078,-57.617,-16.113,-66.406
1613698918.077,-333.008,-54.199,-9.766,-118.652
1613698918.081,65.918,-47.852,-11.719,8.789
1613698918.085,305.664,-50.781,-20.996,105.957
1613698918.089,-56.641,-53.711,-36.621,-0.488
1613698918.093,-339.355,-46.387,-46.875,-119.141
1613698918.109,-55.176,-46.875,-42.480,-33.203
1613698918.113,326.660,-46.387,-24.902,117.676
1613698918.117,88.867,-39.062,-17.578,45.898
1613698918.121,-320.801,-41.016,-19.531,-115.234
1613698918.125,-185.547,-48.340,-18.555,-87.891
1613698918.129,260.742,-48.340,-20.020,78.125
1613698918.133,200.684,-50.293,-21.484,75.195
1613698918.136,-263.184,-54.199,-26.855,-93.262
1613698918.140,-290.039,-53.711,-30.762,-119.629
1613698918.144,149.902,-59.082,-29.297,23.438
1613698918.148,272.949,-61.035,-30.762,75.195
1613698918.152,-160.156,-49.805,-31.250,-64.941
1613698918.154,-344.238,-47.363,-29.297,-138.672
1613698918.158,27.344,-52.246,-27.344,-20.508
1613698918.162,318.848,-54.688,-28.809,90.332
1613698918.166,-22.461,-58.594,-33.203,-10.254
1613698918.170,-356.445,-60.547,-34.668,-129.395
1613698918.174,-117.188,-64.941,-39.551,-68.359
1613698918.178,296.387,-62.988,-40.527,69.824
1613698918.181,113.281,-56.152,-37.598,30.273
1613698918.185,-327.637,-57.617,-41.016,-116.211
1613698918.189,-232.910,-57.129,-40.527,-100.098
1613698918.193,235.352,-50.781,-35.645,48.340
1613698918.197,230.957,-50.293,-30.762,65.430
1613698918.199,-237.793,-54.688,-36.621,-90.332
1613698918.203,-314.453,-60.547,-43.457,-132.324
1613698918.207,117.188,-64.453,-43.945,6.348
1613698918.211,287.109,-60.547,-39.551,77.637
1613698918.215,-139.160,-58.594,-41.016,-55.664
1613698918.219,-365.234,-58.594,-46.875,-146.973
1613698918.223,-7.812,-55.664,-46.875,-44.922
1613698918.226,320.312,-54.199,-44.434,70.801
1613698918.230,-8.789,-53.223,-47.363,-25.391
1613698918.234,-373.535,-53.223,-50.293,-153.320
1613698918.238,-153.320,-49.805,-45.410,-90.820
1613698918.242,282.715,-45.898,-41.016,65.918
1613698918.259,137.207,-50.781,-40.039,41.016
1613698918.263,-296.875,-54.688,-44.434,-110.840
1613698918.267,-245.117,-49.805,-53.223,-119.629
1613698918.271,182.129,-46.875,-53.711,21.484
1613698918.275,214.355,-48.828,-50.781,54.688
1613698918.279,-234.863,-42.480,-50.293,-104.980
1613698918.283,-348.633,-44.434,-45.898,-169.922
1613698918.286,60.547,-57.617,-47.852,-31.250
1613698918.290,285.645,-60.059,-48.828,67.383
1613698918.294,-104.492,-60.059,-51.270,-66.406
1613698918.298,-375.488,-59.570,-58.594,-175.781
1613698918.302,-51.758,-51.270,-56.152,-65.918
1613698918.304,292.480,-51.758,-66.895,63.477
1613698918.308,12.695,-46.875,-86.426,-22.461
1613698918.312,-356.934,-45.898,-89.844,-165.527
1613698918.316,-184.570,-54.688,-75.195,-115.723
1613698918.320,257.812,-53.711,-62.988,43.945
1613698918.324,152.344,-54.199,-59.082,20.508
1613698918.328,-299.805,-60.059,-57.617,-135.254
1613698918.331,-293.457,-62.988,-57.617,-150.391
1613698918.335,151.855,-63.965,-57.129,0.977
1613698918.339,255.371,-60.547,-49.316,55.176
1613698918.343,-190.918,-59.082,-42.969,-87.891
1613698918.347,-355.957,-55.176,-43.457,-151.367
1613698918.334,45.898,-53.711,-40.039,-22.461
1613698918.338,308.105,-55.664,-41.992,77.637
1613698918.342,-59.082,-50.293,-41.992,-33.203
1613698918.346,-360.352,-52.246,-41.992,-149.902
1613698918.350,-93.262,-59.570,-47.363,-65.430
1613698918.354,297.363,-60.547,-44.922,85.938
1613698918.358,72.754,-62.012,-50.293,15.625
1613698918.361,-343.262,-60.547,-53.223,-134.277
1613698918.365,-198.730,-56.641,-47.363,-99.121
1613698918.369,263.672,-54.688,-46.875,55.664
1613698918.373,201.660,-53.223,-49.805,56.641
1613698918.377,-262.695,-55.664,-53.711,-103.027
1613698918.439,-284.180,-52.734,-66.895,-136.719
1613698918.443,147.949,-57.129,-80.078,0.000
1613698918.447,265.137,-64.941,-78.125,55.176
1613698918.451,-173.828,-66.406,-75.195,-83.496
1613698918.455,-375.000,-68.848,-77.637,-160.156
1613698918.459,-8.301,-63.477,-74.219,-41.504
1613698918.463,298.828,-57.617,-65.918,83.008
1613698918.466,-35.645,-53.223,-58.105,-23.438
1613698918.470,-379.395,-59.082,-66.895,-164.551
1613698918.474,-141.602,-70.312,-76.172,-95.703
1613698918.478,290.527,-67.871,-62.500,77.148
1613698918.482,119.629,-53.223,-46.875,41.016
1613698918.486,-317.871,-41.504,-47.363,-131.348
1613698918.490,-246.582,-41.016,-60.059,-132.812
1613698918.494,204.590,-42.969,-67.383,15.137
1613698918.498,220.215,-41.992,-65.918,40.527
1613698918.502,-231.934,-40.039,-71.777,-99.121
1613698918.506,-310.547,-50.293,-80.078,-136.719
1613698918.510,99.121,-54.688,-74.707,-4.395
1613698918.513,269.043,-45.898,-73.730,62.500
1613698918.517,-149.414,-47.363,-68.848,-68.848
1613698918.521,-387.695,-53.711,-65.918,-157.227
1613698918.525,-50.293,-60.059,-71.777,-51.758
1613698918.529,288.086,-63.477,-74.707,68.359
1613698918.500,-9.277,-61.523,-70.801,-22.949
1613698918.504,-381.836,-62.500,-69.336,-159.180
1613698918.508,-181.641,-68.848,-74.707,-107.910
1613698918.512,250.488,-72.754,-81.055,41.016
1613698918.516,106.934,-69.824,-80.566,5.371
1613698918.520,-342.773,-65.918,-74.219,-142.090
1613698918.524,-283.691,-63.965,-69.824,-137.695
1613698918.527,172.363,-69.824,-73.730,13.184
1613698918.531,211.426,-72.266,-91.309,50.293
1613698918.535,-239.258,-64.941,-104.492,-93.750
1613698918.539,-349.121,-63.965,-102.539,-150.879
1613698918.543,65.918,-68.848,-85.449,-24.414
1613698918.529,288.574,-67.871,-72.754,72.754
1613698918.533,-99.609,-62.012,-66.406,-44.922
1613698918.537,-364.258,-62.988,-60.059,-153.320
1613698918.541,-59.570,-64.453,-56.152,-58.594
1613698918.545,309.082,-62.988,-52.734,84.961
1613698918.549,42.969,-62.988,-53.711,13.672
1613698918.553,-342.285,-61.523,-57.129,-131.348
1613698918.556,-173.340,-56.641,-50.781,-91.309
1613698918.560,256.836,-55.176,-51.270,61.523
1613698918.564,155.273,-54.688,-54.199,52.246
1613698918.568,-297.852,-60.059,-49.805,-105.957
1613698918.572,-290.039,-65.918,-52.734,-131.836
1613698918.638,157.715,-59.082,-47.852,24.902
1613698918.642,250.977,-47.852,-39.551,79.102
1613698918.646,-180.664,-42.969,-38.574,-67.383
1613698918.650,-332.520,-49.805,-36.133,-128.906
1613698918.654,46.875,-51.270,-35.645,-10.254
1613698918.658,303.223,-48.828,-37.109,83.008
1613698918.662,-73.242,-62.500,-52.734,-41.992
1613698918.665,-375.488,-62.500,-58.594,-154.297
1613698918.669,-93.262,-52.734,-47.852,-68.848
1613698918.673,307.617,-51.270,-38.574,70.801
1613698918.677,81.055,-46.387,-38.086,5.371
1613698918.681,-345.703,-45.898,-43.945,-141.602
1613698918.641,-220.215,-48.828,-43.945,-104.980
1613698918.645,231.934,-54.199,-41.504,53.711
1613698918.649,186.523,-54.688,-40.527,59.082
1613698918.653,-277.344,-51.270,-44.922,-95.215
1613698918.657,-316.406,-54.688,-45.898,-125.000
1613698918.661,122.070,-56.641,-45.410,25.391
1613698918.665,263.184,-53.223,-44.922,90.332
1613698918.668,-163.086,-52.246,-46.387,-50.781
1613698918.672,-365.234,-56.641,-48.340,-134.766
1613698918.676,9.766,-58.105,-46.387,-20.020
1613698918.680,322.754,-56.152,-46.875,98.633
1613698918.684,-21.973,-55.664,-47.363,-6.348
1613698918.681,-366.211,-56.641,-53.223,-132.812
1613698918.685,-122.559,-52.734,-55.176,-65.918
1613698918.689,294.434,-45.410,-49.805,79.590
1613698918.693,112.793,-42.969,-48.828,32.715
1613698918.697,-325.684,-51.758,-43.457,-114.746
1613698918.701,-230.469,-56.641,-36.133,-92.773
1613698918.705,234.375,-44.922,-42.969,51.270
1613698918.708,218.262,-41.504,-47.852,44.922
1613698918.712,-251.953,-52.246,-43.457,-116.211
1613698918.716,-332.031,-58.105,-46.387,-159.668
1613698918.720,85.449,-57.617,-48.340,-26.367
1613698918.724,270.020,-61.035,-46.387,53.223
1613698918.711,-139.160,-61.035,-48.828,-69.336
1613698918.715,-377.930,-59.570,-43.945,-154.785
1613698918.719,-45.410,-60.059,-42.969,-53.711
1613698918.723,300.781,-57.129,-43.457,73.730
1613698918.727,5.859,-54.688,-36.133,-15.625
1613698918.731,-368.164,-53.711,-38.086,-150.879
1613698918.735,-166.504,-55.176,-39.551,-92.285
1613698918.738,270.020,-56.152,-39.062,55.664
1613698918.742,130.371,-56.641,-46.387,23.926
1613698918.746,-323.242,-61.523,-52.734,-133.789
1613698918.750,-277.344,-61.523,-51.758,-131.836
1613698918.754,173.828,-63.477,-50.293,28.809
1613698918.800,224.121,-61.523,-61.523,58.594
1613698918.804,-222.656,-55.176,-76.660,-88.379
1613698918.808,-333.984,-56.641,-85.938,-139.648
1613698918.812,71.289,-57.129,-77.148,-7.812
1613698918.816,292.969,-56.641,-51.758,85.449
1613698918.820,-96.680,-57.617,-43.457,-41.016
1613698918.824,-371.582,-62.988,-41.504,-142.090
1613698918.827,-62.988,-70.801,-43.457,-52.734
1613698918.831,312.500,-69.824,-41.016,77.637
1613698918.835,48.340,-61.523,-37.109,1.465
1613698918.839,-353.027,-60.059,-43.457,-140.625
1613698918.843,-182.617,-58.105,-44.434,-97.168
1613698918.816,267.578,-52.734,-39.551,61.523
1613698918.820,167.480,-49.805,-39.551,48.340
1613698918.824,-294.922,-51.270,-42.480,-111.816
1613698918.828,-297.852,-51.270,-39.551,-123.047
1613698918.832,147.949,-52.246,-37.598,26.367
1613698918.836,245.605,-53.711,-39.551,72.266
1613698918.840,-201.172,-59.082,-45.410,-77.148
1613698918.843,-354.004,-62.012,-44.434,-149.414
1613698918.847,31.738,-57.617,-42.480,-26.855
1613698918.851,299.805,-58.105,-41.504,77.148
1613698918.855,-58.105,-56.641,-38.086,-34.668
1613698918.859,-362.305,-57.617,-41.016,-156.738
1613698918.874,-92.773,-57.129,-41.016,-72.266
1613698918.878,292.969,-57.129,-42.480,74.707
1613698918.882,74.707,-57.617,-40.039,15.625
1613698918.886,-341.797,-63.965,-42.969,-136.719
1613698918.890,-225.586,-69.824,-54.199,-113.281
1613698918.894,221.680,-68.848,-57.617,50.781
1613698918.898,187.012,-68.359,-53.711,57.129
1613698918.901,-289.062,-66.406,-54.199,-116.699
1613698918.905,-235.352,-67.383,-59.082,-120.117
1613698918.909,-156.738,-65.918,-61.523,-90.332
1613698918.913,-235.352,-60.059,-59.570,-113.281
1613698918.917,195.312,-59.082,-54.688,34.180
1613698918.919,207.031,-58.105,-53.223,49.805
1613698918.923,-250.000,-52.734,-51.270,-108.887
1613698918.927,-312.012,-52.734,-45.410,-142.090
1613698918.931,126.465,-57.129,-42.480,2.441
1613698918.935,304.199,-58.594,-45.410,81.055
1613698918.939,-121.582,-56.152,-41.504,-49.316
1613698918.943,-344.727,-49.316,-43.945,-139.160
1613698918.946,-3.906,-53.223,-58.105,-41.992
1613698918.950,316.406,-62.012,-61.523,78.125
1613698918.954,-7.324,-59.570,-54.688,-8.301
1613698918.958,-359.375,-54.688,-52.246,-138.184
1613698918.962,-111.328,-52.246,-58.594,-69.336
1613698918.950,315.430,-56.152,-51.270,101.562
1613698918.954,130.371,-57.617,-43.945,47.363
1613698918.958,-313.477,-56.152,-47.852,-125.000
1613698918.962,-246.582,-62.988,-51.270,-125.488
1613698918.966,208.496,-67.383,-54.688,22.461
1613698918.970,241.699,-69.824,-60.547,55.664
1613698918.974,-220.215,-72.754,-66.406,-97.168
1613698918.977,-326.172,-74.707,-67.383,-153.809
1613698918.981,92.285,-79.590,-71.777,-14.160
1613698918.985,301.758,-73.242,-66.406,84.961
1613698918.989,-94.727,-63.965,-53.223,-34.668
1613698918.993,-349.609,-60.547,-48.828,-135.742
1613698919.009,-32.227,-62.988,-54.199,-45.410
1613698919.013,325.195,-57.129,-59.082,85.449
1613698919.017,0.000,-51.758,-62.500,-15.137
1613698919.021,-357.910,-55.176,-74.707,-145.020
1613698919.025,-152.344,-61.523,-100.586,-83.496
1613698919.029,268.555,-59.082,-101.562,65.918
1613698919.033,163.574,-49.316,-83.496,39.551
1613698919.036,-288.086,-52.246,-70.801,-126.465
1613698919.040,-274.902,-57.129,-64.941,-138.184
1613698919.044,179.199,-56.152,-59.082,14.648
1613698919.048,263.672,-56.152,-55.664,54.688
1613698919.052,-196.289,-59.082,-59.082,-90.332
1613698919.054,-355.957,-63.965,-59.082,-156.738
1613698919.058,47.363,-66.406,-51.270,-23.438
1613698919.062,314.941,-63.477,-45.898,88.867
1613698919.066,-65.918,-59.082,-47.363,-26.855
1613698919.070,-355.469,-57.617,-49.805,-138.184
1613698919.074,-75.195,-55.176,-42.480,-53.223
1613698919.078,303.711,-55.664,-36.621,86.914
1613698919.081,71.289,-58.594,-37.598,21.973
1613698919.085,-342.285,-63.965,-36.621,-124.023
1613698919.089,-204.102,-65.430,-41.016,-99.609
1613698919.093,246.094,-63.965,-43.457,49.316
1613698919.097,191.406,-60.059,-42.480,46.875
1613698919.099,-261.230,-58.594,-42.969,-106.934
1613698919.103,-290.039,-54.688,-39.062,-125.000
1613698919.107,152.832,-53.223,-39.551,20.996
1613698919.111,276.367,-56.152,-43.457,75.684
1613698919.115,-166.992,-56.152,-40.039,-64.453
1613698919.119,-357.910,-54.199,-35.645,-138.184
1613698919.123,9.766,-58.105,-44.434,-26.367
1613698919.126,309.082,-57.129,-46.875,83.496
1613698919.130,-44.434,-53.711,-41.016,-16.602
1613698919.134,-381.836,-60.059,-44.434,-146.484
1613698919.138,-128.418,-63.477,-45.898,-79.590
1613698919.142,281.250,-58.594,-47.363,62.988
1613698919.148,87.402,-52.246,-46.387,11.230
1613698919.152,-334.473,-48.828,-42.969,-136.719
1613698919.156,-236.816,-50.781,-37.598,-116.211
1613698919.160,212.402,-56.641,-33.691,41.016
1613698919.164,211.426,-56.641,-30.273,58.594
1613698919.168,-248.047,-55.176,-24.414,-97.168
1613698919.172,-321.777,-52.734,-20.508,-139.648
1613698919.175,112.305,-48.828,-22.461,-3.418
1613698919.179,309.570,-54.199,-23.926,90.820
1613698919.183,-106.934,-69.336,-33.203,-32.227
1613698919.187,-400.391,-89.355,-50.293,-186.035
1613698919.191,-93.750,-97.168,-55.664,-117.188
1613698919.190,246.582,-83.496,-43.457,37.109
1613698919.194,-68.848,-89.355,-42.480,-47.852
1613698919.198,-456.055,-102.051,-53.711,-206.543
1613698919.202,-242.676,-99.121,-50.781,-155.273
1613698919.206,174.805,-98.633,-56.641,-25.879
1613698919.210,21.484,-97.168,-61.035,-68.848
1613698919.214,-417.969,-103.516,-56.641,-217.285
1613698919.217,-381.348,-100.586,-55.176,-219.238
1613698919.221,71.289,-92.773,-56.152,-67.871
1613698919.225,125.488,-91.309,-55.664,-36.133
1613698919.229,-312.012,-75.684,-44.434,-174.316
1613698919.233,-423.828,-61.523,-33.203,-224.121
1613698919.251,-0.977,-56.641,-36.133,-89.355
1613698919.255,236.816,-57.129,-37.109,5.371
1613698919.259,-160.156,-58.594,-29.297,-121.582
1613698919.263,-413.574,-53.711,-24.414,-212.891
1613698919.267,-95.215,-54.199,-27.344,-104.980
1613698919.271,264.160,-59.570,-28.320,36.133
1613698919.275,-9.277,-62.500,-30.273,-35.156
1613698919.278,-386.719,-61.523,-32.227,-174.316
1613698919.282,-192.383,-60.059,-31.738,-121.094
1613698919.286,243.164,-58.105,-29.785,39.062
1613698919.290,137.695,-54.199,-28.809,19.043
1613698919.294,-305.664,-53.711,-29.297,-130.371
1613698919.294,-291.504,-59.082,-27.344,-140.137
1613698919.298,165.039,-58.594,-23.926,16.602
1613698919.302,266.602,-50.781,-20.996,75.195
1613698919.306,-175.293,-44.922,-21.973,-66.895
1613698919.310,-330.566,-47.852,-41.504,-128.906
1613698919.314,59.570,-45.410,-60.547,-6.348
1613698919.318,324.219,-37.109,-55.176,95.215
1613698919.321,-47.363,-32.227,-36.133,-22.461
1613698919.325,-349.121,-35.645,-26.855,-141.602
1613698919.329,-67.871,-40.527,-18.555,-52.734
1613698919.333,310.059,-41.016,-14.160,89.355
1613698919.337,75.684,-42.480,-15.625,16.602
1613698919.324,-328.125,-45.410,-18.555,-128.906
1613698919.328,-196.777,-45.898,-21.973,-92.285
1613698919.332,255.859,-48.340,-28.809,56.641
1613698919.336,201.172,-56.152,-35.156,46.875
1613698919.340,-257.324,-55.664,-27.344,-100.098
1613698919.344,-290.039,-47.852,-22.949,-115.234
1613698919.348,153.320,-47.363,-26.855,27.832
1613698919.351,300.781,-47.363,-31.738,84.961
1613698919.355,-143.555,-46.875,-33.691,-59.570
1613698919.359,-346.191,-49.805,-32.715,-136.719
1613698919.363,86.914,-47.363,-29.297,13.672
1613698919.367,364.746,-46.875,-30.273,116.699
1613698919.385,-25.391,-48.340,-34.668,-5.371
1613698919.389,-349.609,-44.922,-34.668,-120.117
1613698919.393,-107.422,-49.805,-35.156,-53.711
1613698919.397,311.035,-53.223,-32.715,101.074
1613698919.401,129.395,-49.805,-31.250,54.688
1613698919.405,-322.754,-45.898,-41.504,-131.348
1613698919.409,-236.328,-51.270,-42.969,-124.512
1613698919.412,230.957,-54.688,-39.551,44.922
1613698919.416,220.215,-47.363,-41.016,54.688
1613698919.420,-245.605,-46.875,-38.574,-102.539
1613698919.424,-315.430,-49.805,-34.668,-136.719
1613698919.428,118.164,-48.340,-35.645,10.254
1613698919.429,295.410,-49.316,-41.016,87.891
1613698919.433,-128.418,-47.852,-38.574,-46.875
1613698919.437,-349.121,-49.805,-39.062,-135.254
1613698919.441,-21.973,-54.688,-42.480,-30.762
1613698919.445,299.805,-54.688,-42.969,82.520
1613698919.449,-0.977,-55.176,-44.434,-11.719
1613698919.453,-366.699,-55.176,-41.504,-141.113
1613698919.456,-153.320,-53.223,-44.434,-87.402
1613698919.460,273.438,-53.711,-47.363,62.500
1613698919.464,130.859,-54.199,-45.898,38.086
1613698919.468,-307.129,-59.082,-49.316,-122.070
1613698919.472,-256.348,-56.641,-47.852,-124.023
1613698919.474,203.125,-50.781,-38.086,44.922
1613698919.478,249.023,-55.176,-37.109,77.637
1613698919.482,-211.426,-53.223,-37.109,-79.102
1613698919.486,-329.590,-50.293,-34.668,-129.883
1613698919.490,82.031,-54.199,-39.062,5.371
1613698919.494,295.410,-52.734,-41.016,85.449
1613698919.498,-86.426,-52.734,-37.598,-43.457
1613698919.501,-359.863,-61.035,-35.645,-142.090
1613698919.505,-62.012,-59.082,-38.086,-45.410
1613698919.509,305.664,-54.199,-41.016,78.125
1613698919.513,34.180,-56.641,-36.133,-2.441
1613698919.517,-351.074,-55.176,-28.809,-137.207
1613698919.521,-181.641,-55.176,-31.250,-89.844
1613698919.525,259.766,-53.711,-40.039,61.035
1613698919.529,168.457,-48.828,-42.969,44.434
1613698919.533,-283.691,-46.387,-42.480,-115.234
1613698919.537,-280.273,-49.805,-41.992,-129.883
1613698919.541,181.152,-49.805,-42.480,28.809
1613698919.545,281.250,-44.922,-42.480,76.660
1613698919.548,-175.781,-50.293,-44.434,-69.824
1613698919.552,-340.820,-55.176,-47.852,-136.719
1613698919.556,76.660,-51.270,-48.340,3.906
1613698919.560,366.211,-50.293,-44.922,129.395
1613698919.564,-52.246,-51.270,-37.598,-22.949
1613698919.564,-390.625,-61.035,-39.551,-170.410
1613698919.568,-93.262,-69.824,-41.016,-65.918
1613698919.572,309.570,-63.477,-35.156,96.680
1613698919.576,70.312,-59.082,-36.621,19.531
1613698919.580,-336.914,-56.152,-38.086,-133.301
1613698919.584,-196.777,-54.199,-36.621,-92.285
1613698919.588,253.418,-59.570,-40.039,73.242
1613698919.591,206.055,-59.082,-48.340,77.637
1613698919.595,-244.629,-52.246,-63.477,-83.496
1613698919.599,-281.250,-54.199,-67.871,-109.863
1613698919.603,157.715,-60.547,-62.500,43.945
1613698919.607,297.363,-62.988,-49.805,104.004
1613698919.612,-135.742,-54.199,-35.156,-31.738
1613698919.616,-341.797,-47.363,-31.250,-115.234
1613698919.620,15.625,-48.828,-39.062,-22.461
1613698919.624,329.102,-48.828,-35.156,98.145
1613698919.628,-8.789,-43.945,-28.320,4.395
1613698919.632,-345.215,-42.480,-30.762,-122.070
1613698919.636,-101.562,-47.852,-32.227,-54.688
1613698919.639,299.316,-47.363,-30.273,88.379
1613698919.643,114.746,-49.316,-25.391,38.086
1613698919.647,-302.246,-48.340,-21.484,-107.422
1613698919.651,-226.074,-51.758,-28.320,-94.727
1613698919.655,211.914,-66.895,-39.062,44.922
1613698919.654,224.609,-68.848,-40.039,60.547
1613698919.658,-245.605,-65.430,-41.992,-104.004
1613698919.662,-335.938,-66.895,-42.969,-152.832
1613698919.666,123.047,-60.547,-41.016,3.418
1613698919.670,296.387,-60.547,-43.457,83.008
1613698919.674,-148.438,-66.406,-47.363,-60.059
1613698919.678,-380.859,-62.988,-45.898,-145.020
1613698919.681,-35.156,-60.547,-40.527,-34.668
1613698919.685,310.547,-60.059,-38.086,83.984
1613698919.689,10.254,-55.664,-40.039,-8.789
1613698919.693,-352.539,-50.781,-42.480,-145.996
1613698919.697,-145.020,-56.641,-40.527,-86.426
1613698919.700,284.180,-57.617,-36.621,69.824
1613698919.704,145.996,-49.316,-34.180,41.016
1613698919.708,-286.133,-41.992,-23.438,-104.980
1613698919.712,-240.234,-38.574,-15.625,-99.609
1613698919.716,209.961,-43.945,-22.461,55.664
1613698919.720,265.137,-39.551,-25.391,86.914
1613698919.724,-185.547,-11.230,-23.438,-70.312
1613698919.727,-316.406,-9.277,-29.785,-128.418
1613698919.731,79.590,-20.996,-36.621,1.953
1613698919.735,311.523,-22.461,-39.062,87.402
1613698919.739,-82.031,-22.949,-36.621,-39.551
1613698919.743,-356.445,-24.902,-31.250,-133.789
1613698919.759,-50.781,-38.574,-32.227,-32.715
1613698919.763,313.965,-43.457,-35.645,96.680
1613698919.767,49.805,-37.109,-32.227,21.973
1613698919.771,-333.496,-38.574,-29.297,-122.559
1613698919.775,-168.945,-43.457,-30.273,-76.660
1613698919.779,240.234,-43.457,-23.926,80.566
1613698919.783,168.457,-41.992,-24.414,61.035
1613698919.786,-264.648,-43.457,-31.738,-97.656
1613698919.790,-278.809,-47.363,-32.227,-113.770
1613698919.794,168.457,-48.340,-33.691,40.527
1613698919.798,279.297,-46.387,-45.410,83.984
1613698919.802,-164.551,-46.875,-56.152,-68.359
1613698919.804,-342.285,-46.875,-61.035,-137.207
1613698919.808,43.945,-49.805,-60.059,-13.184
1613698919.812,321.289,-51.758,-59.082,100.098
1613698919.816,-50.781,-51.270,-57.129,-10.254
1613698919.820,-356.934,-51.270,-46.387,-128.418
1613698919.824,-82.520,-51.758,-42.969,-45.410
1613698919.828,307.129,-51.758,-41.504,101.074
1613698919.831,79.590,-54.199,-46.387,36.621
1613698919.835,-331.543,-55.176,-45.898,-112.793
1613698919.839,-201.172,-55.176,-42.969,-91.797
1613698919.843,251.465,-53.223,-46.387,57.617
1613698919.847,209.473,-52.734,-47.363,63.965
1613698919.849,-244.141,-53.711,-42.480,-83.496
1613698919.853,-261.719,-53.223,-46.875,-91.309
1613698919.857,176.758,-49.805,-45.410,45.410
1613698919.861,281.250,-46.875,-37.109,76.660
1613698919.865,-161.621,-52.246,-35.645,-55.664
1613698919.869,-355.957,-55.176,-36.133,-130.371
1613698919.873,17.090,-52.734,-36.133,-19.531
1613698919.876,340.332,-45.410,-32.227,106.445
1613698919.880,-0.488,-40.039,-32.715,11.230
1613698919.884,-338.379,-43.457,-37.109,-118.164
1613698919.888,-91.309,-41.992,-33.691,-47.852
1613698919.892,321.289,-39.551,-34.668,112.305
1613698919.894,145.020,-39.551,-55.176,67.871
1613698919.898,-278.320,-34.668,-62.988,-93.262
1613698919.902,-197.754,-29.297,-55.664,-83.984
1613698919.906,253.418,-26.855,-35.156,73.730
1613698919.910,271.484,-25.391,-22.461,93.262
1613698919.914,-196.777,-24.902,-25.391,-62.012
1613698919.918,-297.852,-29.297,-26.367,-106.445
1613698919.921,127.441,-32.227,-24.414,33.691
1613698919.925,330.566,-29.785,-22.461,108.398
1613698919.929,-76.660,-22.949,-20.020,-21.484
1613698919.933,-326.172,-28.320,-20.508,-110.840
1613698919.937,-0.977,-35.156,-20.020,-13.184
1613698919.939,341.797,-34.668,-23.438,106.445
1613698919.943,44.434,-28.320,-26.855,25.391
1613698919.947,-329.590,-28.809,-25.879,-100.098
1613698919.951,-129.883,-31.250,-24.902,-48.828
1613698919.955,311.035,-26.855,-19.531,102.051
1613698919.959,164.062,-28.809,-15.625,68.848
1613698919.963,-275.391,-32.715,-17.090,-89.355
1613698919.966,-227.539,-31.250,-13.672,-88.379
1613698919.970,229.492,-28.320,-8.301,61.523
1613698919.974,289.062,-26.367,-13.184,96.191
1613698919.978,-177.246,-27.344,-20.996,-53.223
1613698919.982,-312.500,-22.461,-16.602,-104.492
1613698919.999,103.516,-23.926,-16.113,21.484
1613698920.003,333.984,-37.109,-26.367,106.445
1613698920.007,-65.430,-37.598,-22.949,-8.301
1613698920.011,-344.238,-37.109,-20.508,-115.723
1613698920.015,-35.645,-37.109,-20.996,-22.949
1613698920.019,340.332,-34.180,-14.648,114.746
1613698920.023,76.660,-32.715,-12.695,44.434
1613698920.026,-313.477,-28.809,-18.066,-91.797
1613698920.030,-151.855,-30.762,-23.438,-56.641
1613698920.034,285.645,-29.785,-18.555,100.586
1613698920.038,207.520,-20.020,-13.184,97.168
1613698920.042,-245.605,-22.949,-16.602,-70.312
1613698920.030,-258.789,-24.902,-16.113,-87.402
1613698920.034,191.895,-16.113,-5.371,77.148
1613698920.038,308.594,-17.090,-3.418,139.160
1613698920.042,-133.789,-15.625,-11.719,-15.137
1613698920.046,-302.246,-13.184,-9.277,-85.449
1613698920.050,81.543,-15.625,-4.883,30.762
1613698920.054,354.004,-13.184,-2.930,129.883
1613698920.057,-2.441,-9.766,0.000,18.066
1613698920.061,-307.129,-8.789,-0.488,-96.191
1613698920.065,-45.898,-7.812,-1.953,-12.207
1613698920.069,344.727,-6.836,-2.930,138.184
1613698920.073,127.441,-8.789,-3.418,73.730
1613698920.089,-283.203,-8.789,-3.906,-74.219
1613698920.093,-162.598,-7.812,-1.465,-45.898
1613698920.097,307.617,-8.789,3.906,121.094
1613698920.101,295.898,-5.859,0.977,141.602
1613698920.105,-190.918,-1.465,8.789,-36.621
1613698920.109,-270.020,-2.441,18.066,-86.914
1613698920.113,182.129,-5.371,17.090,69.824
1613698920.116,358.398,0.000,13.184,137.695
1613698920.120,-70.312,7.324,10.742,-3.418
1613698920.124,-292.480,4.883,9.766,-86.426
1613698920.128,57.129,-6.348,-1.953,21.973
1613698920.132,373.535,-5.859,-26.367,140.625
1613698920.134,31.738,-4.395,-40.527,32.227
1613698920.138,-317.871,-6.348,-36.133,-95.215
1613698920.142,-76.172,-4.883,-17.578,-21.973
1613698920.146,344.727,-3.906,1.953,131.348
1613698920.150,179.199,0.000,11.230,93.750
1613698920.154,-248.535,3.418,11.719,-57.617
1613698920.158,-146.484,0.977,13.184,-36.621
1613698920.161,298.340,7.812,18.066,109.375
1613698920.165,301.270,12.695,26.367,129.395
1613698920.169,-162.598,2.930,24.414,-21.973
1613698920.173,-262.207,1.953,17.090,-81.055
1613698920.177,171.387,3.906,17.578,62.500
1613698920.210,375.488,4.883,18.555,155.762
1613698920.214,-40.527,7.812,18.555,21.484
1613698920.218,-295.898,2.930,18.066,-87.891
1613698920.222,39.551,0.488,21.973,22.461
1613698920.226,393.555,10.254,23.438,157.715
1613698920.230,103.516,19.531,23.926,67.383
1613698920.234,-264.160,19.531,30.273,-61.523
1613698920.237,-70.801,18.066,35.156,-6.348
1613698920.241,360.352,15.137,36.133,147.949
1613698920.245,237.305,11.719,35.156,124.512
1613698920.249,-217.773,10.254,32.227,-35.156
1613698920.253,-196.289,13.672,31.738,-44.434
1613698920.269,260.742,13.672,33.691,110.352
1613698920.273,333.008,17.090,33.203,154.297
1613698920.277,-122.070,20.996,33.691,1.465
1613698920.281,-264.648,21.973,35.645,-62.500
1613698920.285,138.672,20.996,36.133,73.730
1613698920.289,387.695,22.949,36.621,170.898
1613698920.293,-0.488,32.227,39.062,45.898
1613698920.296,-286.621,32.227,36.621,-67.383
1613698920.300,14.160,26.855,32.715,30.273
1613698920.304,393.066,27.832,34.180,166.992
1613698920.308,137.695,34.180,27.344,86.426
1613698920.312,-268.066,33.691,4.883,-54.688
1613698920.274,-111.328,26.855,-3.906,-17.578
1613698920.278,356.934,27.344,9.277,137.695
1613698920.282,189.453,23.926,28.320,96.680
1613698920.286,82.031,16.113,32.227,58.594
1613698920.290,160.156,15.625,36.133,83.008
1613698920.294,-248.047,21.973,33.203,-58.594
1613698920.298,-154.785,18.066,23.926,-46.875
1613698920.301,318.848,14.648,27.344,115.234
1613698920.305,269.531,20.020,29.785,116.699
1613698920.309,-195.801,16.113,26.367,-44.922
1613698920.313,-229.492,5.859,19.531,-65.918
1613698920.317,211.426,5.859,20.020,78.613
1613698920.329,341.797,14.160,27.832,142.090
1613698920.333,-78.125,19.531,33.203,17.578
1613698920.337,-254.395,16.113,31.250,-65.918
1613698920.341,88.379,11.719,26.855,33.691
1613698920.345,378.418,11.230,24.902,151.367
1613698920.349,41.016,18.555,26.367,54.688
1613698920.353,-303.711,19.043,25.391,-77.637
1613698920.356,-55.664,11.230,24.414,-15.137
1613698920.360,358.887,13.672,19.531,126.953
1613698920.364,171.387,13.184,10.254,81.055
1613698920.368,-262.695,11.230,13.184,-68.359
1613698920.372,-175.781,8.789,7.812,-53.711
1613698920.374,280.273,6.348,-18.555,105.957
1613698920.378,277.344,9.277,-26.855,122.559
1613698920.382,-181.641,3.418,-13.184,-31.738
1613698920.386,-257.812,-0.488,5.859,-76.660
1613698920.390,170.410,8.301,18.555,65.918
1613698920.394,350.586,8.789,20.996,145.020
1613698920.398,-73.730,0.000,13.672,-2.930
1613698920.401,-301.270,4.395,14.160,-93.262
1613698920.405,38.574,5.859,13.184,21.973
1613698920.409,374.023,21.973,7.324,142.090
1613698920.413,75.195,104.980,11.719,47.852
1613698920.417,-303.223,157.227,15.137,-87.891
1613698920.420,-106.934,148.926,19.043,-23.438
1613698920.424,334.961,142.578,26.367,126.465
1613698920.428,204.102,138.184,23.438,92.285
1613698920.432,-245.117,122.070,14.160,-55.664
1613698920.436,-191.895,96.680,12.207,-49.316
1613698920.440,262.207,66.406,12.695,111.816
1613698920.444,305.176,35.156,12.695,146.973
1613698920.447,-158.203,12.207,15.625,-8.301
1613698920.451,-274.414,0.488,17.090,-69.824
1613698920.455,138.184,-11.230,17.578,57.129
1613698920.459,354.980,-17.090,-0.488,144.531
1613698920.463,-37.598,-18.066,-24.414,17.090
1613698920.494,-312.012,-25.879,-23.926,-91.797
1613698920.498,-8.789,-30.762,-10.254,2.930
1613698920.502,357.422,-29.785,5.859,144.531
1613698920.506,97.656,-32.715,6.836,69.336
1613698920.510,-302.246,-30.273,1.953,-81.055
1613698920.514,-140.625,-21.484,3.418,-33.691
1613698920.518,308.105,-18.066,-4.883,125.000
1613698920.521,214.844,-17.578,-6.348,110.840
1613698920.525,-244.141,-18.555,0.977,-52.246
1613698920.529,-232.422,-19.043,0.977,-75.195
1613698920.533,226.562,-12.695,7.324,83.008
1613698920.537,319.824,-10.742,16.113,142.090
1613698920.554,-125.977,-7.812,15.137,-16.113
1613698920.558,-276.855,-5.859,11.230,-85.938
1613698920.562,104.004,-14.160,3.906,42.969
1613698920.566,348.633,-22.461,-16.602,131.348
1613698920.570,-24.414,-22.949,-44.922,1.953
1613698920.574,-335.938,-27.832,-62.500,-120.117
1613698920.578,-56.152,-20.996,-43.945,-34.668
1613698920.581,346.680,-11.719,-16.602,105.957
1613698920.585,134.766,-11.719,-11.230,55.664
1613698920.589,-284.180,-7.324,-7.324,-77.148
1613698920.593,-170.410,-6.348,-4.395,-50.781
1613698920.597,294.434,-0.488,1.953,112.793
1613698920.560,266.113,15.137,10.254,122.559
1613698920.564,-195.312,20.020,14.160,-32.715
1613698920.568,-245.117,13.672,12.207,-55.664
1613698920.572,196.777,16.113,16.602,85.938
1613698920.576,350.586,21.973,19.531,151.367
1613698920.580,-88.867,23.438,13.184,7.324
1613698920.584,-294.922,26.367,10.742,-83.008
1613698920.587,71.289,27.832,-8.789,39.062
1613698920.591,374.023,29.297,-28.320,147.949
1613698920.595,48.340,29.785,-21.973,44.922
1613698920.599,-302.246,34.180,-1.953,-73.730
1613698920.603,-68.359,34.668,6.348,-13.184
1613698920.614,360.840,37.109,13.184,138.184
1613698920.618,186.523,48.828,27.832,102.051
1613698920.622,-244.629,54.199,34.668,-44.922
1613698920.626,-152.344,54.199,39.062,-22.949
1613698920.630,313.965,56.152,42.480,139.160
1613698920.634,314.941,59.082,39.062,155.273
1613698920.638,-156.738,57.129,35.156,2.441
1613698920.641,-242.676,46.387,20.020,-50.293
1613698920.645,176.758,47.852,-2.930,83.008
1613698920.649,351.074,46.387,-13.672,159.180
1613698920.653,-62.500,36.133,-6.836,17.090
1613698920.657,-288.574,41.504,9.277,-86.426
1613698920.659,40.527,36.133,8.301,5.371
1613698920.663,374.023,31.250,11.230,128.418
1613698920.667,69.824,39.062,18.555,38.086
1613698920.671,-310.059,35.156,10.742,-98.145
1613698920.675,-121.094,31.250,12.695,-49.316
1613698920.679,288.086,34.668,8.789,76.660
1613698920.683,154.297,39.062,3.906,41.016
1613698920.686,-292.480,40.527,7.812,-114.746
1613698920.690,-277.344,30.762,-14.648,-132.324
1613698920.694,154.297,23.926,-37.598,14.648
1613698920.698,196.777,22.461,-31.738,36.133
1613698920.702,-261.719,26.855,-12.207,-126.953
1613698920.719,-391.602,32.227,-3.418,-194.336
1613698920.723,0.000,29.785,-6.348,-75.195
1613698920.727,223.145,32.715,-8.789,3.906
1613698920.731,-177.246,38.086,-7.324,-129.395
1613698920.735,-468.262,37.109,-7.324,-240.234
1613698920.739,-175.781,32.227,-8.301,-161.621
1613698920.743,195.312,21.484,-12.695,-31.738
1613698920.746,-59.570,10.254,-31.250,-100.098
1613698920.750,-462.402,3.906,-53.223,-249.023
1613698920.754,-308.105,3.418,-44.922,-212.402
1613698920.758,146.973,6.348,-26.855,-56.152
1613698920.762,73.242,2.930,-21.484,-62.012
1613698920.749,-381.348,-5.859,-17.578,-207.520
1613698920.753,-372.070,-16.602,-20.020,-208.496
1613698920.757,92.285,-21.973,-31.738,-47.363
1613698920.761,202.148,-27.832,-38.086,4.883
1613698920.765,-240.723,-29.785,-37.109,-140.137
1613698920.769,-390.625,-31.250,-53.223,-195.312
1613698920.773,16.602,-29.785,-81.543,-55.664
1613698920.776,296.875,-21.484,-89.844,62.500
1613698920.780,-53.711,-20.508,-76.172,-37.109
1613698920.784,-358.398,-23.438,-58.594,-148.926
1613698920.788,-77.148,-31.250,-56.641,-63.477
1613698920.792,337.402,-34.180,-51.758,94.238
1613698920.794,120.605,-26.367,-41.016,57.129
1613698920.798,-300.293,-30.762,-37.598,-85.938
1613698920.802,-172.852,-38.086,-38.086,-63.477
1613698920.806,310.547,-32.715,-39.062,110.352
1613698920.810,249.023,-30.762,-55.664,107.422
1613698920.814,-232.422,-30.273,-71.777,-58.105
1613698920.818,-228.027,-33.691,-68.848,-68.359
1613698920.821,205.566,-42.480,-52.734,83.008
1613698920.825,351.562,-44.434,-39.551,147.461
1613698920.829,-69.336,-41.016,-35.156,3.418
1613698920.833,-270.996,-38.086,-27.832,-72.754
1613698920.837,82.031,-33.691,-31.250,38.086
1613698920.839,382.812,-36.133,-37.109,150.391
1613698920.843,54.199,-38.574,-38.086,55.664
1613698920.847,-296.875,-39.551,-58.105,-72.266
1613698920.851,-72.754,-44.434,-78.125,-4.395
1613698920.855,348.145,-48.340,-77.637,142.090
1613698920.859,167.480,-46.875,-65.918,83.496
1613698920.863,-280.762,-42.969,-55.176,-70.312
1613698920.866,-202.148,-40.527,-43.457,-51.758
1613698920.870,262.695,-41.016,-37.598,98.633
1613698920.874,275.879,-37.598,-35.645,112.305
1613698920.878,-193.359,-33.691,-31.738,-42.480
1613698920.882,-277.344,-31.738,-32.227,-82.520
1613698920.914,151.855,-29.785,-47.852,53.711
1613698920.918,340.820,-34.668,-66.406,132.812
1613698920.922,-80.566,-38.086,-65.918,-0.977
1613698920.926,-325.195,-35.156,-44.922,-101.074
1613698920.930,12.207,-33.691,-30.762,-6.836
1613698920.934,351.562,-36.621,-30.273,116.211
1613698920.938,55.176,-40.039,-33.203,36.621
1613698920.941,-310.547,-36.133,-29.297,-94.238
1613698920.945,-104.004,-25.391,-16.602,-32.715
1613698920.949,333.984,-13.184,-9.277,132.812
1613698920.953,199.707,-12.695,-33.691,99.121
1613698920.957,-258.301,-22.949,-59.570,-64.941
1613698920.961,-226.562,-22.949,-56.641,-77.148
1613698920.965,224.121,-21.973,-37.598,73.242
1613698920.969,288.574,-23.438,-28.320,117.188
1613698920.973,-183.105,-23.926,-27.344,-40.527
1613698920.977,-278.320,-30.273,-25.879,-96.191
1613698920.981,133.301,-29.297,-40.039,34.668
1613698920.985,310.059,-26.855,-61.035,109.863
1613698920.988,-61.035,-24.902,-65.430,-16.113
1613698920.992,-342.285,-28.320,-56.152,-129.395
1613698920.996,-49.316,-31.738,-47.363,-39.551
1613698921.000,319.336,-27.344,-48.340,94.238
1613698921.004,63.965,-26.367,-49.316,12.207
1613698920.974,-336.914,-32.227,-48.828,-133.301
1613698920.978,-195.801,-41.992,-56.152,-101.562
1613698920.982,246.582,-42.969,-60.059,46.875
1613698920.986,169.922,-37.598,-77.148,36.621
1613698920.990,-287.109,-33.691,-93.750,-115.723
1613698920.994,-294.434,-33.691,-89.355,-126.465
1613698920.998,150.879,-35.645,-74.707,18.555
1613698921.001,272.461,-30.273,-51.758,72.754
1613698921.005,-173.340,-32.227,-48.340,-76.172
1613698921.009,-367.676,-35.645,-56.641,-151.855
