timestamps,TP9,AF7,AF8,TP10
1613613844.771,-754.883,-771.484,-1000.000,-1000.000
1613613844.775,548.828,622.070,-768.555,-263.184
1613613844.779,-778.809,-824.219,554.199,-926.758
1613613844.783,275.879,30.273,561.035,245.117
1613613844.787,-776.367,-798.340,-858.887,-1000.000
1613613844.791,821.777,854.980,-1000.000,-877.441
1613613844.795,-688.965,-703.125,302.734,749.023
1613613844.798,-380.859,-732.422,684.570,880.371
1613613844.802,-901.855,933.594,-727.539,-867.676
1613613844.806,968.262,-937.500,-1000.000,-1000.000
1613613844.810,-604.004,-510.742,-127.930,681.152
1613613844.814,-887.695,-1000.000,710.938,988.281
1613613844.814,734.375,579.590,-464.355,-647.949
1613613844.818,-787.598,-755.371,-1000.000,-1000.000
1613613844.822,-11.719,134.766,-528.809,276.855
1613613844.826,-916.992,-912.598,607.910,-894.531
1613613844.830,505.859,428.711,57.129,-327.637
1613613844.834,-765.137,-779.785,-1000.000,-1000.000
1613613844.838,642.578,721.191,-798.340,-570.312
1613613844.841,-759.766,-770.996,517.090,968.750
1613613844.845,145.508,-172.363,562.988,482.910
1613613844.849,-776.855,-832.520,-820.801,-1000.000
1613613844.853,837.891,875.977,-1000.000,-959.473
1613613844.857,-703.613,-701.660,149.414,662.598
1613613844.874,-565.918,-855.469,728.027,966.309
1613613844.878,-993.164,825.195,-621.582,-785.156
1613613844.882,-946.777,-872.559,-1000.000,-1000.000
1613613844.886,-474.609,-423.340,-215.820,686.035
1613613844.890,-963.379,-1000.000,719.727,984.375
1613613844.894,617.188,552.246,-268.066,-643.555
1613613844.898,-751.465,-755.859,-1000.000,-1000.000
1613613844.901,232.422,352.539,-650.879,192.383
1613613844.905,-836.426,-894.043,574.707,-866.211
1613613844.909,476.074,293.945,338.379,-203.125
1613613844.913,-771.973,-784.668,-945.801,-1000.000
1613613844.917,725.098,796.875,-965.820,-669.434
1613613844.919,-719.238,-727.051,424.316,914.062
1613613844.923,24.414,-421.387,665.039,689.941
1613613844.927,-783.203,-904.785,-772.461,-991.211
1613613844.931,853.027,928.223,-1000.000,-985.840
1613613844.935,-708.496,-672.852,23.926,662.598
1613613844.939,-745.605,-916.504,723.145,-988.770
1613613844.943,904.297,731.445,-580.566,-690.430
1613613844.946,-873.047,-814.941,-1000.000,-1000.000
1613613844.950,-354.980,-255.859,-313.965,570.312
1613613844.954,-998.047,-975.098,711.914,-962.891
1613613844.958,539.551,534.668,-195.312,-532.227
1613613844.962,-744.629,-762.207,-1000.000,-1000.000
1613613844.965,452.637,519.043,-684.570,-104.492
1613613844.969,-805.176,-864.258,573.242,-896.484
1613613844.973,376.953,171.875,386.230,23.438
1613613844.977,-779.297,-789.062,-919.922,-1000.000
1613613844.981,705.078,736.328,-901.367,-686.035
1613613844.985,-702.637,-739.746,426.758,861.328
1613613844.989,-170.410,-614.258,659.180,775.391
1613613844.992,-841.797,995.605,-743.652,-926.270
1613613844.996,910.156,-1000.000,-1000.000,-1000.000
1613613845.000,-666.016,-602.539,-52.734,680.664
1613613845.004,-826.172,-979.980,727.539,991.699
1613613845.008,809.570,625.977,-502.930,-674.805
1613613845.011,-922.363,-791.016,-1000.000,-955.078
1613613845.015,-201.172,-61.523,-420.410,529.785
1613613845.019,-943.848,-944.336,643.066,-947.754
1613613845.023,518.066,496.094,-21.484,-414.062
1613613845.027,-751.465,-774.414,-1000.000,-1000.000
1613613845.031,453.125,543.945,-679.199,-237.305
1613613845.035,-825.195,-850.586,565.918,-917.480
1613613845.038,268.066,3.906,511.719,240.234
1613613845.042,-782.715,-811.523,-831.055,-1000.000
1613613845.046,824.707,861.816,-1000.000,-875.977
1613613845.050,-690.918,-701.172,204.590,740.723
1613613845.054,-376.953,-778.809,699.219,915.039
1613613845.054,-911.621,901.367,-683.105,-829.590
1613613845.058,991.699,-922.363,-1000.000,-1000.000
1613613845.062,-547.852,-498.535,-151.855,683.105
1613613845.066,-920.410,-1000.000,734.375,988.281
1613613845.070,692.383,568.359,-401.367,-647.461
1613613845.074,-772.461,-753.906,-1000.000,-1000.000
1613613845.078,55.176,190.430,-550.293,267.090
1613613845.081,-897.949,-905.762,628.418,-887.695
1613613845.085,496.582,400.879,170.410,-307.617
1613613845.089,-760.742,-780.762,-1000.000,-1000.000
1613613845.093,642.578,743.652,-875.000,-594.727
1613613845.097,-762.207,-752.930,492.676,959.473
1613613845.099,139.160,-209.473,573.730,487.305
1613613845.103,-778.320,-838.867,-821.289,-1000.000
1613613845.107,839.844,879.883,-1000.000,-955.078
1613613845.111,-703.613,-701.172,127.441,649.902
1613613845.115,-599.121,-869.141,722.656,-990.723
1613613845.119,986.816,806.152,-634.277,-729.004
1613613845.123,-931.641,-860.352,-1000.000,-1000.000
1613613845.126,-441.406,-395.508,-155.762,688.477
1613613845.130,-992.188,-998.535,729.004,979.004
1613613845.134,581.543,554.199,-313.965,-642.578
1613613845.138,-749.512,-763.184,-1000.000,-1000.000
1613613845.142,249.023,394.531,-670.898,92.773
1613613845.144,-731.934,-785.156,482.422,916.504
1613613845.148,508.789,303.711,288.086,-267.090
1613613845.152,-791.992,-801.758,-941.895,-1000.000
1613613845.156,749.512,817.871,-981.445,-705.078
1613613845.160,-700.684,-718.262,385.254,899.902
1613613845.164,20.996,-461.426,648.926,713.379
1613613845.168,-783.203,-919.922,-765.137,-978.516
1613613845.171,852.539,938.965,-1000.000,-989.746
1613613845.175,-703.613,-660.645,-11.719,665.527
1613613845.179,-779.297,-936.523,717.773,-993.652
1613613845.183,873.047,702.148,-565.430,-679.688
1613613845.187,-857.422,-803.711,-1000.000,-1000.000
1613613845.191,-334.473,-213.379,-393.066,516.113
1613613845.195,-997.070,-964.844,663.574,-962.891
1613613845.199,538.574,530.273,-65.430,-524.902
1613613845.203,-743.652,-765.137,-1000.000,-1000.000
1613613845.207,454.590,551.270,-753.418,-174.805
1613613845.211,-806.152,-848.145,558.594,-921.387
1613613845.215,361.328,134.277,522.949,39.551
1613613845.218,-777.832,-788.574,-870.605,-1000.000
1613613845.222,806.152,844.238,-1000.000,-782.715
1613613845.226,-670.898,-698.730,333.496,820.801
1613613845.230,-208.008,-656.250,668.945,822.754
1613613845.234,-846.191,986.328,-745.605,-905.762
1613613845.249,925.781,-984.863,-1000.000,-1000.000
1613613845.253,-628.418,-575.195,-51.758,675.293
1613613845.257,-871.582,-989.746,754.395,997.070
1613613845.261,768.066,609.863,-491.699,-662.598
1613613845.265,-804.688,-768.066,-1000.000,-1000.000
1613613845.269,-140.625,-8.301,-373.535,393.555
1613613845.273,-953.613,-934.570,701.172,-919.922
1613613845.276,519.043,477.051,-12.207,-417.969
1613613845.280,-755.371,-775.879,-1000.000,-1000.000
1613613845.284,572.266,668.457,-810.059,-392.578
1613613845.288,-772.461,-803.711,497.070,-967.285
1613613845.292,248.047,-63.965,524.414,327.148
1613613845.294,-778.320,-812.988,-840.332,-1000.000
1613613845.298,827.637,864.746,-1000.000,-879.395
1613613845.302,-694.336,-701.172,176.758,736.816
1613613845.306,-464.844,-807.617,698.730,949.707
1613613845.310,-945.801,876.953,-675.781,-791.016
1613613845.314,-987.793,-907.715,-1000.000,-1000.000
1613613845.318,-530.273,-477.539,-143.555,685.059
1613613845.321,-949.707,-1000.000,734.375,987.793
1613613845.325,659.180,558.105,-374.023,-646.484
1613613845.329,-765.137,-752.441,-1000.000,-1000.000
1613613845.333,53.711,236.328,-583.008,262.207
1613613845.337,-898.438,-899.414,580.078,-887.695
1613613845.340,498.535,379.395,177.734,-307.617
1613613845.344,-767.578,-784.180,-1000.000,-1000.000
1613613845.348,668.945,766.113,-903.320,-602.539
1613613845.352,-739.746,-740.234,453.125,954.590
1613613845.356,121.582,-286.621,613.281,594.727
1613613845.360,-781.738,-860.352,-785.645,-1000.000
1613613845.364,844.727,893.066,-1000.000,-972.168
1613613845.367,-703.125,-696.289,59.570,655.273
1613613845.371,-698.730,-889.160,733.398,-984.375
1613613845.375,939.941,776.855,-589.844,-695.312
1613613845.379,-908.691,-843.750,-1000.000,-1000.000
1613613845.383,-427.246,-350.098,-281.250,621.094
1613613845.385,-1000.000,-991.211,701.660,984.863
1613613845.389,549.316,544.434,-282.715,-629.395
1613613845.393,-739.258,-757.812,-1000.000,-1000.000
1613613845.397,286.621,432.617,-664.062,38.086
1613613845.401,-814.941,-879.883,556.152,-887.207
1613613845.405,471.680,235.840,347.656,-119.141
1613613845.409,-786.133,-786.621,-954.590,-1000.000
1613613845.412,776.367,817.871,-940.918,-694.824
1613613845.416,-679.199,-715.332,483.398,888.672
1613613845.420,-85.938,-536.621,645.020,776.855
1613613845.424,-803.711,-951.172,-773.926,-929.199
1613613845.428,864.746,958.008,-1000.000,-1000.000
1613613845.431,-704.102,-644.043,-11.719,670.410
1613613845.435,-816.406,-960.449,736.816,-996.582
1613613845.439,843.750,667.480,-540.527,-674.805
1613613845.443,-849.121,-791.992,-1000.000,-1000.000
1613613845.447,-337.402,-171.875,-375.488,492.188
1613613845.451,-996.094,-954.102,663.086,-961.914
1613613845.455,539.551,525.391,-126.953,-524.902
1613613845.458,-750.000,-768.066,-1000.000,-1000.000
1613613845.462,484.375,590.332,-770.508,-197.754
1613613845.466,-793.945,-834.961,505.859,-917.480
1613613845.470,340.820,91.309,453.613,146.973
1613613845.474,-782.227,-792.969,-879.883,-1000.000
1613613845.475,817.383,849.609,-1000.000,-794.922
1613613845.479,-682.617,-698.242,261.230,818.848
1613613845.483,-341.309,-728.027,683.594,866.211
1613613845.487,-883.789,948.730,-706.055,-863.770
1613613845.491,943.848,-969.238,-1000.000,-1000.000
1613613845.495,-632.324,-567.383,-83.008,678.223
1613613845.499,-893.066,-1000.000,753.906,996.094
1613613845.502,745.605,589.355,-359.863,-663.574
1613613845.506,-799.316,-765.137,-1000.000,-1000.000
1613613845.510,-142.090,20.996,-516.602,378.906
1613613845.514,-953.125,-942.383,630.859,-894.531
1613613845.518,521.484,447.754,43.457,-359.863
1613613845.520,-765.137,-777.344,-1000.000,-1000.000
1613613845.524,609.375,685.547,-811.035,-402.832
1613613845.528,-765.625,-800.293,517.090,-959.961
1613613845.532,196.777,-119.141,545.898,442.871
1613613845.536,-779.297,-823.730,-841.309,-1000.000
1613613845.540,834.473,871.094,-1000.000,-943.359
1613613845.544,-699.219,-703.125,225.098,687.500
1613613845.547,-547.363,-824.219,733.398,956.543
1613613845.551,-975.586,857.422,-671.387,-791.992
1613613845.555,-971.680,-891.113,-1000.000,-1000.000
1613613845.559,-528.320,-449.219,-131.348,685.059
1613613845.563,-953.125,-1000.000,730.469,988.281
1613613845.564,646.484,554.199,-379.395,-647.461
1613613845.568,-761.230,-752.441,-1000.000,-1000.000
1613613845.572,112.793,296.387,-626.953,255.859
1613613845.576,-877.930,-895.996,559.570,-874.512
1613613845.580,493.164,341.309,185.059,-268.066
1613613845.584,-775.391,-784.180,-1000.000,-1000.000
1613613845.588,707.520,779.785,-926.758,-635.742
1613613845.591,-727.051,-735.352,414.062,935.059
1613613845.595,55.664,-354.980,599.121,683.594
1613613845.599,-783.691,-881.836,-798.828,-988.770
1613613845.603,851.074,907.227,-1000.000,-986.328
1613613845.607,-705.566,-687.988,55.176,662.598
1613613845.625,-750.977,-908.203,720.703,-987.305
1613613845.629,915.527,751.953,-584.473,-691.895
1613613845.633,-895.996,-831.055,-1000.000,-1000.000
1613613845.637,-422.363,-317.871,-313.965,597.656
1613613845.641,-1000.000,-985.352,680.176,-1000.000
1613613845.645,546.387,541.016,-173.340,-611.816
1613613845.649,-744.141,-760.254,-1000.000,-1000.000
1613613845.652,373.535,469.727,-713.867,24.414
1613613845.656,-812.012,-877.930,549.805,-867.676
1613613845.660,413.574,196.777,457.520,13.672
1613613845.664,-784.180,-788.574,-885.742,-1000.000
1613613845.668,798.340,829.590,-1000.000,-746.094
1613613845.669,-671.875,-709.961,357.910,865.723
1613613845.673,-171.387,-595.215,659.180,782.227
1613613845.677,-820.312,-975.586,-751.953,-931.641
1613613845.681,875.000,976.562,-1000.000,-1000.000
1613613845.685,-709.473,-627.441,-26.855,670.898
1613613845.689,-818.848,-974.121,763.672,-996.582
1613613845.693,829.102,644.531,-518.066,-675.781
1613613845.696,-836.426,-783.691,-1000.000,-1000.000
1613613845.700,-262.695,-133.301,-385.254,486.816
1613613845.704,-979.980,-952.148,677.246,-952.148
1613613845.708,532.227,512.207,-99.121,-486.816
1613613845.712,-753.906,-770.508,-1000.000,-1000.000
1613613845.715,526.367,611.328,-765.137,-327.148
1613613845.719,-795.410,-829.590,535.156,-950.684
1613613845.723,285.645,47.363,494.629,255.859
1613613845.727,-775.391,-792.480,-883.301,-1000.000
1613613845.731,808.105,847.656,-1000.000,-863.281
1613613845.735,-593.262,-698.730,360.840,754.395
1613613845.739,-234.375,-647.949,621.582,779.297
1613613845.742,-883.301,965.332,-747.070,-901.367
1613613845.746,951.172,-964.355,-1000.000,-1000.000
1613613845.750,-614.746,-527.832,-101.074,670.410
1613613845.754,-890.625,-1000.000,724.609,998.535
1613613845.758,736.816,581.055,-459.961,-662.598
1613613845.760,-790.039,-760.254,-1000.000,-1000.000
1613613845.764,-31.738,89.355,-541.504,361.328
1613613845.768,-922.363,-936.035,597.168,-879.883
1613613845.772,508.301,420.410,129.395,-319.824
1613613845.776,-763.672,-779.785,-1000.000,-1000.000
1613613845.780,628.418,709.961,-838.867,-447.754
1613613845.784,-776.855,-791.504,516.113,-976.074
1613613845.787,143.066,-198.242,580.566,462.402
1613613845.791,-777.832,-839.844,-810.059,-1000.000
1613613845.795,837.891,879.395,-1000.000,-952.637
1613613845.799,-703.125,-702.637,105.469,674.316
1613613845.803,-567.383,-858.887,721.680,966.309
1613613845.804,-990.234,823.730,-615.234,-782.227
1613613845.808,-953.613,-875.000,-1000.000,-1000.000
1613613845.812,-493.652,-432.129,-244.141,688.477
1613613845.816,-956.543,-1000.000,700.195,975.586
1613613845.820,631.836,552.246,-342.285,-629.883
1613613845.824,-755.859,-753.906,-1000.000,-1000.000
1613613845.828,186.035,345.215,-614.258,71.777
1613613845.831,-852.539,-889.160,588.867,-899.902
1613613845.835,492.676,312.500,224.609,-205.078
1613613845.839,-785.645,-786.133,-1000.000,-1000.000
1613613845.843,724.609,794.922,-937.500,-687.988
1613613845.847,-523.438,-702.637,451.660,896.484
1613613845.851,99.609,-397.949,646.973,694.824
1613613845.855,-816.895,-902.344,-795.898,-992.676
1613613845.859,869.141,922.852,-1000.000,-985.352
1613613845.863,-713.379,-677.734,81.543,662.109
1613613845.867,-747.559,-923.340,729.004,-987.305
1613613845.871,908.203,728.516,-589.844,-692.871
1613613845.875,-881.836,-819.336,-1000.000,-1000.000
1613613845.878,-379.883,-286.133,-272.949,587.402
1613613845.882,-999.512,-979.980,685.059,-974.121
1613613845.886,542.480,538.086,-229.004,-543.945
1613613845.890,-746.094,-763.672,-1000.000,-1000.000
1613613845.894,434.082,513.672,-723.145,-126.953
1613613845.895,-812.988,-866.211,502.441,-908.691
1613613845.899,367.188,161.621,403.809,32.715
1613613845.903,-778.320,-787.598,-903.320,-1000.000
1613613845.907,805.176,834.961,-1000.000,-784.668
1613613845.911,-667.969,-707.031,342.285,826.660
1613613845.915,-187.988,-643.555,675.293,795.410
1613613845.919,-829.590,999.512,-735.352,-931.152
1613613845.922,893.555,994.629,-1000.000,-1000.000
1613613845.926,-679.199,-609.863,-69.824,671.875
1613613845.930,-839.844,-983.398,726.074,-999.023
1613613845.934,798.828,625.488,-491.699,-671.875
1613613845.938,-818.359,-774.902,-1000.000,-1000.000
1613613845.940,-179.199,-77.148,-472.168,445.312
1613613845.944,-961.914,-948.730,625.000,-921.875
1613613845.948,522.949,493.164,-31.738,-419.922
1613613845.952,-753.906,-773.926,-1000.000,-1000.000
1613613845.956,553.223,640.625,-804.688,-388.672
1613613845.960,-791.016,-819.824,532.715,-969.727
1613613845.964,251.953,-10.254,576.660,264.648
1613613845.967,-774.414,-803.711,-843.262,-1000.000
1613613845.971,822.266,859.375,-1000.000,-874.023
1613613845.975,-690.430,-701.172,235.352,747.070
1613613845.979,-378.418,-775.879,698.242,889.160
1613613845.983,-907.715,905.762,-699.219,-857.910
1613613845.999,981.934,-926.758,-1000.000,-1000.000
1613613846.003,-562.012,-506.348,-110.840,680.176
1613613846.007,-930.176,-1000.000,744.629,992.188
1613613846.011,684.570,570.801,-423.340,-655.762
1613613846.015,-773.438,-757.324,-1000.000,-1000.000
1613613846.019,23.926,146.973,-497.070,320.312
1613613846.023,-906.738,-931.641,633.301,-885.254
1613613846.026,500.977,391.113,138.672,-312.988
1613613846.030,-762.695,-781.738,-1000.000,-1000.000
1613613846.034,643.066,731.445,-822.266,-556.641
1613613846.038,-762.207,-777.832,518.066,976.074
1613613846.042,139.648,-263.184,569.336,526.367
1613613846.033,-779.785,-856.445,-809.570,-1000.000
1613613846.037,840.820,887.207,-1000.000,-963.867
1613613846.041,-703.125,-703.613,81.543,653.320
1613613846.045,-632.812,-876.465,703.613,-991.211
1613613846.049,973.633,798.828,-635.254,-722.168
1613613846.053,-929.688,-859.375,-1000.000,-1000.000
1613613846.057,-449.219,-400.391,-232.910,669.922
1613613846.060,-996.582,-999.023,711.914,978.516
1613613846.064,569.824,549.316,-270.020,-628.418
1613613846.068,-742.676,-756.836,-1000.000,-1000.000
1613613846.072,247.070,395.020,-681.152,44.922
1613613846.076,-831.543,-884.277,546.387,-896.484
1613613846.089,473.633,271.484,298.340,-186.035
1613613846.093,-771.973,-786.621,-956.543,-1000.000
1613613846.097,727.051,809.570,-964.355,-687.500
1613613846.101,-722.656,-718.750,391.113,890.137
1613613846.105,3.906,-493.164,666.016,738.770
1613613846.109,-788.574,-930.176,-746.094,-958.984
1613613846.113,854.004,937.988,-1000.000,-995.117
1613613846.116,-700.195,-665.527,5.371,666.504
1613613846.120,-805.664,-953.613,729.004,-991.211
1613613846.124,857.910,686.035,-566.895,-686.523
1613613846.128,-859.863,-804.199,-1000.000,-1000.000
1613613846.132,-358.398,-240.234,-364.258,550.293
1613613846.134,-997.070,-970.703,676.758,-964.844
1613613846.138,539.551,533.691,-144.531,-526.855
1613613846.142,-745.117,-767.090,-1000.000,-1000.000
1613613846.146,454.590,537.598,-722.656,-168.945
1613613846.150,-806.152,-865.234,536.133,-915.527
1613613846.154,361.816,111.328,455.566,81.543
1613613846.158,-780.273,-791.992,-892.578,-1000.000
1613613846.161,810.059,842.773,-1000.000,-789.062
1613613846.165,-674.316,-706.055,412.109,824.707
1613613846.169,-250.977,-668.457,679.688,820.312
1613613846.173,-855.469,979.980,-748.047,-907.715
1613613846.177,922.363,-982.422,-1000.000,-1000.000
1613613846.180,-642.090,-575.684,-79.102,675.293
1613613846.184,-881.348,-989.746,738.281,995.605
1613613846.188,756.836,608.887,-494.629,-659.668
1613613846.192,-802.246,-767.090,-1000.000,-1000.000
1613613846.196,-141.602,-2.441,-495.117,378.906
1613613846.200,-953.613,-935.547,620.605,-919.434
1613613846.204,519.043,473.633,37.109,-417.480
1613613846.207,-752.930,-775.391,-1000.000,-1000.000
1613613846.211,557.617,663.574,-805.664,-394.043
1613613846.215,-796.387,-813.965,505.371,-966.797
1613613846.219,235.352,-83.984,517.578,346.680
1613613846.223,-780.762,-817.871,-842.773,-1000.000
1613613846.224,831.055,867.676,-1000.000,-891.113
1613613846.228,-696.289,-703.125,199.707,731.445
1613613846.232,-505.859,-808.105,713.379,938.477
1613613846.236,-958.984,875.488,-664.062,-804.199
1613613846.240,-983.887,-904.785,-1000.000,-1000.000
1613613846.244,-535.156,-472.656,-152.344,684.570
1613613846.248,-956.543,-1000.000,748.535,987.793
1613613846.251,650.879,559.082,-285.156,-646.484
1613613846.255,-763.184,-753.906,-1000.000,-1000.000
1613613846.259,53.223,235.840,-609.375,262.207
1613613846.263,-898.438,-909.668,608.887,-888.184
1613613846.267,499.512,363.281,204.590,-308.105
1613613846.271,-770.508,-783.203,-1000.000,-1000.000
1613613846.275,673.828,760.742,-892.090,-602.051
1613613846.279,-753.418,-753.418,501.953,956.055
1613613846.283,86.426,-326.172,649.902,647.461
1613613846.287,-783.691,-872.559,-803.711,-999.512
1613613846.291,848.633,897.949,-1000.000,-981.445
1613613846.295,-704.590,-700.195,122.070,660.156
1613613846.298,-729.004,-890.137,723.633,-986.816
1613613846.302,926.758,774.902,-632.324,-691.406
1613613846.306,-903.320,-843.262,-1000.000,-1000.000
1613613846.310,-429.199,-351.074,-285.156,601.562
1613613846.314,-1000.000,-996.582,684.082,992.188
1613613846.314,557.129,550.781,-277.832,-636.719
1613613846.318,-742.188,-760.742,-1000.000,-1000.000
1613613846.322,172.363,333.496,-581.055,132.324
1613613846.326,-867.188,-920.898,583.984,-845.215
1613613846.330,475.098,238.281,307.129,-81.055
1613613846.334,-794.922,-794.922,-943.848,-1000.000
1613613846.338,778.320,821.289,-938.477,-704.102
1613613846.341,-692.383,-717.773,404.297,892.090
1613613846.345,-126.953,-556.152,628.418,775.879
1613613846.349,-812.988,-958.496,-761.230,-929.199
1613613846.353,869.141,961.426,-1000.000,-1000.000
1613613846.357,-705.566,-643.066,-35.156,670.898
1613613846.374,-824.219,-966.797,731.445,-996.582
1613613846.378,836.914,660.156,-526.855,-675.293
1613613846.382,-847.168,-791.504,-1000.000,-1000.000
1613613846.386,-338.379,-173.828,-422.363,490.723
1613613846.390,-996.094,-959.961,646.973,-957.520
1613613846.394,540.527,520.020,-28.809,-520.020
1613613846.398,-753.418,-769.531,-1000.000,-1000.000
1613613846.401,496.582,578.613,-781.738,-191.406
1613613846.405,-808.105,-853.516,522.461,-904.785
1613613846.409,304.688,53.711,541.992,238.281
1613613846.413,-781.250,-799.316,-838.867,-1000.000
1613613846.417,821.289,852.051,-1000.000,-815.918
1613613846.419,-687.012,-703.125,275.879,817.871
1613613846.423,-373.535,-744.629,702.148,866.211
1613613846.427,-895.508,937.988,-714.355,-864.258
1613613846.431,956.055,-960.449,-1000.000,-1000.000
1613613846.435,-623.535,-558.105,-95.215,678.711
1613613846.439,-891.602,-1000.000,737.305,995.605
1613613846.443,742.676,586.426,-454.102,-660.645
1613613846.446,-795.898,-762.207,-1000.000,-1000.000
1613613846.450,-104.004,50.781,-493.164,374.023
1613613846.454,-942.383,-933.105,629.883,-912.109
1613613846.458,517.090,445.312,46.875,-384.277
1613613846.462,-763.672,-777.344,-1000.000,-1000.000
1613613846.465,608.887,693.848,-827.637,-514.648
1613613846.469,-780.762,-794.434,515.137,987.793
1613613846.473,172.363,-127.441,560.059,434.082
1613613846.477,-779.785,-824.707,-832.031,-1000.000
1613613846.481,837.402,871.582,-1000.000,-955.078
1613613846.485,-701.172,-702.148,192.871,660.645
1613613846.489,-570.312,-837.402,715.332,961.426
1613613846.492,-983.887,848.633,-656.250,-792.969
1613613846.496,-967.773,-887.207,-1000.000,-1000.000
1613613846.500,-529.785,-447.266,-202.637,685.059
1613613846.504,-952.637,-1000.000,708.984,987.793
1613613846.508,646.484,557.617,-346.680,-649.414
1613613846.511,-761.230,-756.836,-1000.000,-1000.000
1613613846.515,113.770,271.973,-585.938,246.094
1613613846.519,-877.441,-926.270,586.426,-854.004
1613613846.523,492.188,306.641,238.281,-208.496
1613613846.527,-772.461,-784.180,-980.957,-1000.000
1613613846.531,692.383,773.926,-906.738,-609.375
1613613846.535,-757.812,-754.883,463.867,960.938
1613613846.538,32.227,-414.062,624.512,676.758
1613613846.542,-785.156,-901.367,-779.297,-986.816
1613613846.546,853.027,916.992,-1000.000,-986.816
1613613846.550,-707.031,-687.500,11.230,662.109
1613613846.554,-750.000,-919.922,744.629,-987.793
1613613846.555,913.086,736.328,-548.340,-691.895
1613613846.559,-892.090,-826.172,-1000.000,-1000.000
1613613846.563,-410.645,-310.059,-339.844,597.656
1613613846.567,-1000.000,-983.398,677.734,995.117
1613613846.571,546.387,539.551,-234.375,-592.285
1613613846.575,-745.117,-760.742,-1000.000,-1000.000
1613613846.579,375.977,489.746,-698.730,-127.441
1613613846.582,-828.125,-871.582,568.359,-914.062
1613613846.586,390.625,187.988,422.363,9.766
1613613846.590,-782.715,-787.598,-923.340,-1000.000
1613613846.594,800.293,832.520,-1000.000,-782.227
1613613846.598,-674.805,-706.543,365.723,825.684
1613613846.600,-188.965,-600.586,651.855,791.992
1613613846.604,-823.730,-978.516,-760.254,-934.570
1613613846.608,876.465,980.957,-1000.000,-1000.000
1613613846.612,-708.496,-617.676,-46.387,670.898
1613613846.616,-829.590,-983.887,731.445,-996.582
1613613846.620,821.289,635.742,-508.789,-677.246
1613613846.624,-835.938,-784.668,-1000.000,-1000.000
1613613846.627,-275.879,-138.672,-347.656,474.121
1613613846.631,-982.910,-964.355,683.105,-914.551
1613613846.635,547.363,509.277,-68.848,-434.570
1613613846.639,-768.555,-781.738,-1000.000,-1000.000
1613613846.643,518.066,596.191,-790.527,-223.633
1613613846.644,-523.438,-601.074,475.586,992.676
1613613846.648,381.836,104.492,517.090,191.406
1613613846.652,-823.242,-846.191,-841.309,-1000.000
1613613846.656,839.355,873.535,-1000.000,-879.883
1613613846.660,-695.312,-707.031,219.727,749.512
1613613846.664,-281.738,-668.457,602.051,780.762
1613613846.668,-866.699,948.242,-718.262,-901.367
1613613846.671,947.754,-951.172,-1000.000,-1000.000
1613613846.675,-593.750,-512.207,-167.969,672.363
1613613846.679,-917.969,-1000.000,725.586,993.164
1613613846.683,704.590,575.195,-415.527,-652.832
1613613846.687,-781.250,-757.324,-1000.000,-1000.000
1613613846.704,-15.625,124.512,-566.406,300.781
1613613846.708,-917.480,-931.641,597.168,-886.230
1613613846.712,506.348,407.227,198.242,-310.547
1613613846.716,-765.625,-781.250,-1000.000,-1000.000
1613613846.720,643.066,724.121,-886.230,-571.777
1613613846.724,-763.184,-781.250,509.277,969.238
1613613846.728,139.648,-230.469,628.418,483.398
1613613846.731,-778.320,-847.168,-812.988,-1000.000
1613613846.735,839.844,882.812,-1000.000,-957.031
1613613846.739,-702.637,-701.660,132.812,654.785
1613613846.743,-607.910,-873.047,713.379,993.164
1613613846.747,992.676,810.059,-639.648,-749.512
1613613846.749,-950.195,-871.582,-1000.000,-1000.000
1613613846.753,-484.863,-432.129,-203.613,687.500
1613613846.757,-996.094,-1000.000,735.352,982.910
1613613846.761,578.125,554.688,-284.668,-640.137
1613613846.765,-746.582,-758.301,-1000.000,-1000.000
1613613846.769,190.430,330.078,-587.402,159.668
1613613846.773,-851.074,-915.527,608.887,-873.047
1613613846.776,482.422,276.367,269.043,-199.707
1613613846.780,-774.902,-787.109,-967.285,-1000.000
1613613846.784,726.074,798.340,-900.879,-690.918
1613613846.788,-719.727,-732.422,451.660,897.461
1613613846.792,24.414,-466.797,618.652,694.824
1613613846.795,-783.691,-920.410,-774.902,-992.676
1613613846.799,852.051,931.152,-1000.000,-985.352
1613613846.803,-701.172,-672.363,-2.441,662.598
1613613846.807,-790.039,-944.336,710.449,-989.258
1613613846.811,872.559,701.172,-573.730,-688.965
1613613846.815,-867.188,-811.035,-1000.000,-1000.000
1613613846.819,-368.652,-271.484,-336.914,564.453
1613613846.822,-997.559,-977.539,680.664,-966.797
1613613846.826,540.527,536.621,-166.016,-525.879
1613613846.830,-745.605,-765.137,-1000.000,-1000.000
1613613846.834,454.590,530.273,-737.793,-174.316
1613613846.838,-806.152,-859.375,524.902,-921.387
1613613846.840,361.816,149.414,405.273,39.551
1613613846.844,-779.297,-789.062,-899.902,-1000.000
1613613846.848,808.594,840.332,-1000.000,-782.715
1613613846.852,-672.852,-702.148,278.809,821.777
1613613846.856,-238.281,-672.363,687.988,818.359
1613613846.860,-847.168,984.375,-704.102,-909.668
1613613846.864,907.715,-996.094,-1000.000,-1000.000
1613613846.867,-660.645,-599.609,-67.383,673.340
1613613846.871,-880.859,-996.094,740.234,-999.023
1613613846.875,766.113,612.305,-491.699,-672.363
1613613846.879,-812.988,-775.879,-1000.000,-1000.000
1613613846.883,-208.984,-78.613,-465.820,447.754
1613613846.884,-967.773,-960.449,655.762,-921.875
1613613846.888,526.855,475.098,28.320,-420.410
1613613846.892,-756.836,-775.879,-1000.000,-1000.000
1613613846.896,555.176,645.996,-803.223,-392.090
1613613846.900,-796.875,-832.031,507.812,-967.773
1613613846.904,241.211,-80.078,553.223,316.895
1613613846.908,-780.273,-819.336,-847.656,-1000.000
1613613846.911,829.590,867.676,-1000.000,-878.906
1613613846.915,-695.312,-701.660,304.688,738.281
1613613846.919,-490.234,-812.988,701.660,939.453
1613613846.923,-950.195,877.441,-698.730,-802.246
1613613846.927,-994.629,-914.551,-1000.000,-1000.000
1613613846.931,-550.293,-497.559,-72.754,684.570
1613613846.935,-954.590,-1000.000,764.160,987.793
1613613846.939,652.344,562.012,-381.836,-646.484
1613613846.943,-764.160,-754.883,-1000.000,-1000.000
1613613846.947,53.223,195.801,-566.406,262.207
1613613846.951,-898.438,-917.480,599.121,-888.184
1613613846.955,497.559,379.883,166.016,-307.129
1613613846.958,-763.184,-783.691,-1000.000,-1000.000
1613613846.962,647.949,752.930,-908.203,-596.191
1613613846.966,-773.438,-755.859,444.824,958.496
1613613846.970,106.934,-284.180,585.449,517.578
1613613846.974,-784.180,-859.863,-803.223,-1000.000
1613613846.975,847.656,889.160,-1000.000,-958.984
1613613846.979,-708.008,-705.566,45.410,654.297
1613613846.983,-717.773,-889.648,708.496,-986.328
1613613846.987,932.617,776.855,-607.422,-700.195
1613613846.991,984.375,-943.359,-1000.000,-977.539
1613613846.995,-489.258,-421.387,-263.184,684.570
1613613846.999,-992.676,-983.398,714.844,966.309
1613613847.002,546.387,543.457,-130.859,-624.023
1613613847.006,-739.746,-758.301,-1000.000,-1000.000
1613613847.010,228.516,386.230,-690.430,49.316
1613613847.014,-856.445,-912.598,575.684,-876.953
1613613847.018,454.102,222.656,324.707,-70.312
1613613847.020,-780.762,-789.062,-950.195,-1000.000
1613613847.024,747.559,812.988,-966.309,-701.660
1613613847.028,-733.398,-727.539,405.273,892.090
1613613847.032,-127.441,-564.453,650.391,775.879
1613613847.036,-814.941,-958.496,-770.996,-929.199
1613613847.040,869.629,953.125,-1000.000,-1000.000
1613613847.044,-706.055,-660.156,16.113,670.898
1613613847.047,-824.219,-965.332,741.699,-996.582
1613613847.051,836.914,665.527,-563.965,-675.293
1613613847.055,-847.168,-795.898,-1000.000,-1000.000
1613613847.059,-338.379,-208.008,-328.125,492.188
1613613847.063,-996.582,-962.891,682.129,-962.402
1613613847.064,539.551,530.273,-142.090,-523.438
1613613847.068,-747.559,-769.531,-1000.000,-1000.000
1613613847.072,462.891,571.777,-770.020,-208.008
1613613847.076,-828.613,-851.074,513.184,-924.316
1613613847.080,319.824,83.984,415.527,118.164
1613613847.084,-783.691,-794.922,-894.531,-1000.000
1613613847.088,820.312,848.633,-1000.000,-812.988
1613613847.091,-685.547,-701.172,258.301,792.480
1613613847.095,-364.746,-729.492,667.480,872.070
1613613847.099,-889.160,950.195,-719.238,-865.234
1613613847.103,944.336,-973.633,-1000.000,-1000.000
1613613847.107,-638.672,-576.172,-83.984,678.711
1613613847.111,-892.090,-1000.000,741.699,995.117
1613613847.115,745.605,590.820,-435.547,-661.133
1613613847.119,-799.316,-767.578,-1000.000,-1000.000
1613613847.123,-142.090,-1.953,-507.812,371.582
1613613847.127,-953.125,-953.613,618.164,-902.344
1613613847.131,521.484,445.312,125.488,-378.418
1613613847.135,-762.207,-778.809,-1000.000,-1000.000
1613613847.138,586.914,678.223,-854.492,-402.832
1613613847.142,-805.664,-818.359,501.465,-960.449
1613613847.146,170.898,-160.156,589.355,456.055
1613613847.150,-780.762,-834.473,-811.035,-1000.000
1613613847.154,837.891,875.977,-1000.000,-945.801
1613613847.170,-701.172,-702.637,167.969,687.988
1613613847.174,-571.289,-847.168,734.375,956.543
1613613847.178,-981.934,845.215,-652.832,-791.992
1613613847.182,-973.145,-895.508,-1000.000,-1000.000
1613613847.186,-537.598,-472.168,-173.828,685.059
1613613847.190,-958.984,-1000.000,747.070,987.793
1613613847.194,643.066,558.594,-349.121,-647.949
1613613847.197,-761.719,-756.348,-1000.000,-1000.000
1613613847.201,70.312,254.395,-589.355,253.418
1613613847.205,-892.578,-920.898,585.449,-869.141
1613613847.209,499.512,330.566,188.965,-252.441
1613613847.213,-777.344,-786.621,-1000.000,-1000.000
1613613847.215,700.684,779.297,-906.738,-662.109
1613613847.219,-747.070,-742.676,454.102,916.504
1613613847.223,35.645,-379.395,604.492,688.965
1613613847.227,-784.668,-888.672,-801.270,-990.723
1613613847.231,852.539,908.203,-1000.000,-985.840
1613613847.235,-706.543,-690.430,80.078,662.109
1613613847.239,-751.953,-917.480,726.562,-987.793
1613613847.242,916.504,745.117,-597.656,-692.383
1613613847.246,-899.414,-833.496,-1000.000,-1000.000
1613613847.250,-431.152,-336.426,-281.738,591.309
1613613847.254,-1000.000,-988.281,678.223,-981.934
1613613847.258,549.316,543.945,-237.305,-581.543
1613613847.260,-746.094,-762.695,-1000.000,-1000.000
1613613847.264,340.332,456.543,-711.914,17.578
1613613847.268,-846.680,-894.531,524.414,-868.652
1613613847.272,391.113,178.711,372.070,13.672
1613613847.276,-780.762,-790.039,-918.457,-1000.000
1613613847.280,787.598,830.078,-1000.000,-756.836
1613613847.284,-692.871,-713.867,338.379,855.957
1613613847.287,-186.035,-628.906,664.551,784.668
1613613847.291,-824.219,-988.770,-726.074,-932.129
1613613847.295,875.977,979.004,-1000.000,-1000.000
1613613847.299,-707.520,-630.859,-59.570,670.898
1613613847.303,-833.496,-982.422,733.887,-996.094
1613613847.304,820.312,634.277,-514.160,-676.758
1613613847.308,-837.402,-783.691,-1000.000,-1000.000
1613613847.312,-290.527,-136.719,-455.078,478.516
1613613847.316,-985.352,-960.449,633.789,-930.664
1613613847.320,536.133,502.441,-58.105,-439.941
1613613847.324,-757.812,-770.996,-1000.000,-1000.000
1613613847.328,528.809,612.305,-768.066,-363.281
1613613847.331,-811.035,-839.355,540.039,-961.426
1613613847.335,257.812,18.555,502.441,260.742
1613613847.339,-776.855,-802.246,-870.605,-1000.000
1613613847.343,822.266,856.934,-1000.000,-875.488
1613613847.347,-688.965,-700.195,265.625,749.023
1613613847.351,-382.324,-770.996,705.078,880.371
1613613847.355,-897.461,918.457,-701.172,-867.676
1613613847.359,955.566,-946.777,-1000.000,-1000.000
1613613847.363,-615.234,-541.504,-82.031,679.199
1613613847.367,-923.828,-1000.000,736.328,994.141
1613613847.371,699.707,576.660,-411.621,-659.180
1613613847.375,-783.203,-760.742,-1000.000,-1000.000
1613613847.378,-50.781,84.473,-484.375,342.285
1613613847.382,-927.246,-944.824,627.441,-886.230
1613613847.386,510.742,410.156,79.102,-312.500
1613613847.390,-766.113,-782.227,-1000.000,-1000.000
1613613847.394,635.742,717.773,-871.582,-595.215
1613613847.395,-775.879,-794.922,481.934,964.355
1613613847.399,147.949,-221.191,589.844,480.957
1613613847.403,-781.738,-849.121,-811.035,-1000.000
1613613847.407,741.211,782.715,-1000.000,-856.934
1613613847.411,-735.840,-734.863,138.672,688.477
1613613847.415,-611.816,-861.328,708.496,977.051
1613613847.419,979.004,798.828,-623.047,-742.188
1613613847.422,-950.195,-869.629,-1000.000,-1000.000
1613613847.426,-499.023,-437.012,-255.371,687.988
1613613847.430,-997.559,-1000.000,701.172,978.516
1613613847.434,574.707,553.711,-262.695,-633.301
1613613847.438,-746.582,-757.324,-1000.000,-1000.000
1613613847.439,199.707,342.773,-667.969,92.285
1613613847.443,-848.145,-911.133,557.617,-887.207
1613613847.447,480.957,275.879,282.227,-191.406
1613613847.451,-774.414,-786.133,-968.262,-1000.000
1613613847.455,725.586,799.316,-962.402,-689.453
1613613847.459,-719.727,-730.957,426.270,897.461
1613613847.463,24.414,-469.727,661.133,694.824
1613613847.466,-784.180,-920.898,-778.320,-992.676
1613613847.470,852.051,931.152,-1000.000,-985.352
1613613847.474,-700.195,-674.805,11.230,663.574
1613613847.478,-795.898,-939.941,716.309,-992.676
1613613847.482,869.629,706.543,-581.543,-681.152
1613613847.500,-868.164,-812.500,-1000.000,-1000.000
1613613847.504,-375.000,-275.391,-322.754,523.926
1613613847.508,-999.023,-979.004,706.543,-962.891
1613613847.512,541.992,538.086,-167.969,-526.855
1613613847.516,-745.605,-766.602,-1000.000,-1000.000
1613613847.520,426.270,516.113,-694.824,-159.180
1613613847.524,-818.848,-879.883,555.176,-916.992
1613613847.527,367.188,119.629,411.621,37.598
1613613847.531,-785.156,-792.969,-899.902,-1000.000
1613613847.535,813.965,839.355,-1000.000,-781.250
1613613847.539,-676.758,-708.984,331.543,813.477
1613613847.543,-296.875,-708.984,675.781,857.422
1613613847.533,-857.422,967.285,-725.586,-873.535
1613613847.537,898.438,-995.605,-1000.000,-1000.000
1613613847.541,-689.453,-611.816,-86.426,676.758
1613613847.545,-884.277,-997.559,724.121,999.023
1613613847.549,759.277,607.910,-490.234,-667.480
1613613847.553,-812.500,-774.902,-1000.000,-1000.000
1613613847.557,-212.402,-76.172,-477.051,421.875
1613613847.560,-967.773,-959.473,617.188,-920.898
1613613847.564,527.344,476.074,32.227,-418.945
1613613847.568,-757.812,-776.855,-1000.000,-1000.000
1613613847.572,557.129,650.879,-825.195,-391.113
1613613847.576,-799.805,-827.637,500.000,-968.262
1613613847.590,232.910,-83.008,551.758,302.246
1613613847.594,-776.367,-813.965,-831.055,-1000.000
1613613847.598,825.684,861.328,-1000.000,-869.141
1613613847.602,-694.824,-698.730,168.945,732.910
1613613847.606,-426.270,-725.098,629.883,850.586
1613613847.610,-927.734,903.320,-661.133,-824.707
1613613847.614,993.652,-928.711,-1000.000,-1000.000
1613613847.617,-547.363,-490.723,-188.477,677.246
1613613847.621,-958.008,-1000.000,720.703,990.723
1613613847.625,652.344,562.988,-389.648,-646.484
1613613847.629,-765.137,-757.324,-1000.000,-1000.000
1613613847.633,38.574,191.406,-565.430,262.207
1613613847.635,-902.344,-932.617,604.492,-888.184
1613613847.639,500.488,357.910,166.504,-307.617
1613613847.643,-766.602,-784.180,-1000.000,-1000.000
1613613847.647,653.320,750.977,-888.672,-602.051
1613613847.651,-784.180,-769.531,462.402,956.055
1613613847.655,75.195,-346.191,600.586,655.762
1613613847.659,-786.133,-878.906,-812.012,-995.605
1613613847.662,850.586,896.973,-1000.000,-982.910
1613613847.666,-704.590,-702.637,195.801,660.645
1613613847.670,-752.930,-907.227,741.211,-987.305
1613613847.674,918.457,761.719,-620.117,-691.406
1613613847.678,-903.320,-844.727,-1000.000,-1000.000
1613613847.679,-440.430,-372.070,-314.453,602.051
1613613847.683,-1000.000,-994.141,678.223,985.840
1613613847.687,552.246,546.387,-269.043,-626.953
1613613847.691,-741.699,-759.277,-1000.000,-1000.000
1613613847.695,253.906,427.246,-696.289,24.414
1613613847.699,-853.516,-888.184,544.922,-902.832
1613613847.703,443.848,229.492,342.773,-185.059
1613613847.706,-782.715,-788.574,-944.824,-1000.000
1613613847.710,759.766,822.266,-984.375,-729.004
1613613847.714,-724.121,-713.379,382.324,845.703
1613613847.718,-157.227,-562.012,650.391,780.762
1613613847.722,-820.312,-957.031,-761.719,-937.500
1613613847.725,873.535,955.566,-1000.000,-1000.000
1613613847.729,-708.008,-652.344,-26.855,670.410
1613613847.733,-824.219,-971.680,727.051,-996.094
1613613847.737,838.379,659.180,-540.527,-676.270
1613613847.741,-849.609,-795.898,-1000.000,-1000.000
1613613847.745,-346.191,-203.125,-401.855,483.398
1613613847.749,-996.582,-973.145,673.340,-937.988
1613613847.752,541.016,514.648,36.133,-481.934
1613613847.756,-750.488,-770.020,-1000.000,-1000.000
1613613847.760,470.703,562.500,-791.992,-192.383
1613613847.764,-844.727,-872.070,533.203,-903.320
1613613847.768,287.109,34.668,480.957,237.793
1613613847.771,-782.227,-803.223,-868.164,-1000.000
1613613847.775,822.754,852.539,-1000.000,-820.801
1613613847.779,-688.477,-706.055,291.992,812.988
1613613847.783,-383.789,-760.254,719.238,867.188
1613613847.787,-895.020,931.152,-715.820,-864.746
1613613847.791,948.730,-962.891,-1000.000,-1000.000
1613613847.795,-637.207,-568.848,-64.941,678.223
1613613847.798,-892.578,-1000.000,742.188,995.605
1613613847.802,745.117,585.938,-478.027,-661.133
1613613847.806,-798.828,-765.137,-1000.000,-1000.000
1613613847.810,-142.090,25.879,-496.582,369.629
1613613847.814,-953.125,-949.707,601.074,-902.344
1613613847.815,522.949,435.059,46.875,-359.375
1613613847.819,-767.090,-776.367,-1000.000,-1000.000
1613613847.823,608.887,690.430,-840.820,-531.738
1613613847.827,-796.875,-804.199,487.793,979.980
1613613847.831,147.949,-102.051,482.910,377.930
1613613847.835,-778.809,-810.547,-853.516,-1000.000
1613613847.839,838.379,865.723,-1000.000,-944.824
1613613847.842,-702.148,-697.754,153.320,656.250
1613613847.846,-570.312,-850.098,699.707,963.379
1613613847.850,-983.398,839.355,-657.227,-792.969
1613613847.854,-970.703,-885.742,-1000.000,-1000.000
1613613847.858,-521.973,-450.684,-227.539,685.059
1613613847.874,-980.957,-1000.000,710.938,986.816
1613613847.878,610.840,557.617,-302.246,-647.461
1613613847.882,-755.371,-757.324,-1000.000,-1000.000
1613613847.886,103.027,279.785,-645.508,230.957
1613613847.890,-881.348,-928.223,563.965,-857.910
1613613847.894,494.141,298.340,300.781,-207.520
1613613847.898,-774.902,-786.133,-951.660,-1000.000
1613613847.901,698.730,781.250,-951.172,-659.180
1613613847.905,-751.465,-750.488,415.039,922.852
1613613847.909,31.250,-450.195,643.066,687.500
1613613847.913,-785.156,-913.086,-764.160,-990.234
1613613847.917,852.539,920.410,-1000.000,-985.840
1613613847.920,-703.125,-687.012,18.555,662.109
1613613847.924,-772.949,-935.059,726.562,-987.793
1613613847.928,900.391,720.703,-591.309,-693.359
1613613847.932,-894.531,-826.172,-1000.000,-1000.000
1613613847.936,-433.105,-323.730,-331.055,584.473
1613613847.940,-1000.000,-985.840,681.152,-964.844
1613613847.944,547.852,541.992,-163.086,-531.250
1613613847.947,-747.559,-763.184,-1000.000,-1000.000
1613613847.951,379.395,477.539,-707.031,-116.211
1613613847.955,-844.238,-895.996,568.848,-899.902
1613613847.959,380.371,170.410,401.367,24.902
1613613847.963,-784.180,-791.992,-919.922,-1000.000
1613613847.965,706.543,735.840,-921.387,-685.547
1613613847.969,-702.148,-742.188,420.898,861.328
1613613847.973,-174.316,-624.512,645.996,775.391
1613613847.977,-832.031,996.094,-748.047,-926.270
1613613847.981,877.441,990.234,-1000.000,-1000.000
1613613847.985,-701.172,-618.164,-43.945,670.898
1613613847.989,-864.746,-990.234,729.004,-996.582
1613613847.992,788.574,625.488,-525.879,-677.246
1613613847.996,-828.125,-782.227,-1000.000,-1000.000
1613613848.000,-279.297,-127.441,-468.750,474.121
1613613848.004,-982.910,-969.727,618.164,-916.504
1613613848.008,534.180,487.793,-9.766,-428.711
1613613848.011,-754.395,-773.926,-1000.000,-1000.000
1613613848.015,510.254,603.516,-783.691,-277.832
1613613848.019,-833.008,-867.676,517.578,-928.223
1613613848.023,249.023,-79.590,510.742,294.434
1613613848.027,-784.180,-824.219,-849.121,-1000.000
1613613848.031,830.566,868.652,-1000.000,-879.883
1613613848.035,-693.848,-701.172,224.121,740.234
1613613848.038,-496.582,-818.848,700.684,934.082
1613613848.042,-940.430,881.348,-661.621,-807.617
1613613848.046,978.516,-930.664,-1000.000,-1000.000
1613613848.050,-604.492,-530.762,-162.109,683.594
1613613848.054,-948.242,-1000.000,725.586,989.746
1613613848.054,665.039,567.871,-398.926,-649.902
1613613848.058,-772.949,-759.277,-1000.000,-1000.000
1613613848.062,-12.207,126.953,-581.543,285.156
1613613848.066,-916.504,-943.848,592.285,-887.695
1613613848.070,506.348,385.254,143.555,-308.594
1613613848.074,-766.602,-783.203,-1000.000,-1000.000
1613613848.078,643.066,732.422,-874.512,-594.727
1613613848.081,-774.902,-781.250,511.719,958.984
1613613848.085,116.211,-281.250,640.625,486.816
1613613848.089,-783.691,-861.328,-809.082,-1000.000
1613613848.093,846.191,889.648,-1000.000,-958.496
1613613848.097,-702.148,-704.102,98.145,661.621
1613613848.099,-713.867,-880.371,704.102,968.262
1613613848.103,944.824,795.898,-633.301,-755.371
1613613848.107,-929.688,-859.375,-1000.000,-1000.000
1613613848.111,-480.469,-407.227,-285.645,600.098
1613613848.115,-1000.000,-1000.000,687.500,991.211
1613613848.119,561.523,557.617,-270.020,-634.766
1613613848.123,-744.629,-760.254,-1000.000,-1000.000
1613613848.126,119.629,278.809,-509.277,144.531
1613613848.130,-880.859,-937.988,624.023,-862.793
1613613848.134,488.770,270.020,241.211,-202.148
1613613848.138,-789.062,-796.387,-955.566,-1000.000
1613613848.142,742.676,813.965,-979.980,-690.918
1613613848.144,-739.746,-724.121,373.535,887.695
1613613848.148,-115.723,-539.551,650.879,751.465
1613613848.152,-812.988,-946.289,-762.207,-949.707
1613613848.156,868.164,942.871,-1000.000,-998.047
1613613848.160,-704.590,-666.992,-36.621,668.457
1613613848.164,-826.660,-970.215,720.703,-995.117
1613613848.168,842.285,666.504,-530.762,-676.758
1613613848.171,-857.910,-802.246,-1000.000,-1000.000
1613613848.175,-369.141,-247.559,-409.668,501.953
1613613848.179,-997.070,-975.586,649.414,-961.914
1613613848.183,541.504,530.273,-66.406,-525.879
1613613848.187,-750.000,-770.020,-1000.000,-1000.000
1613613848.191,464.844,546.387,-781.250,-182.129
1613613848.195,-833.496,-874.512,534.180,-914.062
1613613848.199,310.547,67.383,529.785,126.465
1613613848.203,-783.691,-799.805,-863.281,-1000.000
1613613848.207,821.777,849.609,-1000.000,-810.547
1613613848.211,-687.012,-705.078,319.824,798.340
1613613848.215,-379.395,-743.164,717.773,870.605
1613613848.218,-891.602,944.824,-719.238,-864.746
1613613848.222,941.406,-975.098,-1000.000,-1000.000
1613613848.226,-646.484,-585.449,-79.102,678.711
1613613848.230,-892.578,-1000.000,729.492,995.605
1613613848.234,748.535,594.238,-478.027,-661.133
1613613848.250,-802.734,-770.020,-1000.000,-1000.000
1613613848.254,-166.016,-21.484,-472.656,369.141
1613613848.258,-958.496,-963.379,644.043,-896.973
1613613848.262,523.438,440.918,92.773,-366.211
1613613848.266,-759.766,-776.855,-1000.000,-1000.000
1613613848.270,567.383,665.039,-798.340,-403.320
1613613848.274,-827.148,-832.031,538.574,-959.961
1613613848.277,169.922,-160.156,531.250,456.543
1613613848.281,-781.738,-836.426,-826.660,-1000.000
1613613848.285,837.891,876.465,-1000.000,-938.477
1613613848.289,-701.172,-702.148,128.906,697.266
1613613848.293,-571.777,-851.074,698.730,955.078
1613613848.295,-980.957,843.750,-649.902,-791.992
1613613848.299,-977.539,-897.461,-1000.000,-1000.000
1613613848.303,-541.016,-478.516,-198.242,685.059
1613613848.307,-968.262,-1000.000,715.332,987.793
1613613848.311,632.324,560.547,-331.543,-648.438
1613613848.315,-760.742,-758.301,-1000.000,-1000.000
1613613848.319,52.734,235.352,-599.609,251.465
1613613848.322,-898.926,-935.059,590.332,-866.211
1613613848.326,501.465,321.289,231.445,-241.699
1613613848.330,-775.879,-787.598,-979.980,-1000.000
1613613848.334,688.477,777.832,-938.477,-678.223
1613613848.338,-763.672,-748.535,423.828,904.785
1613613848.340,33.691,-391.602,627.441,692.383
1613613848.344,-785.156,-891.602,-778.809,-991.699
1613613848.348,853.027,907.715,-1000.000,-985.840
1613613848.352,-706.543,-691.895,10.254,662.109
1613613848.356,-752.441,-924.805,724.609,-987.305
1613613848.360,917.480,738.281,-565.918,-692.871
1613613848.364,-901.855,-834.961,-1000.000,-1000.000
1613613848.367,-437.012,-349.121,-351.074,585.449
1613613848.371,-1000.000,-990.723,678.223,-962.891
1613613848.375,552.734,546.387,-189.453,-553.711
1613613848.379,-746.094,-764.160,-1000.000,-1000.000
1613613848.383,270.020,432.129,-690.430,24.414
1613613848.384,-886.719,-915.039,559.570,-866.211
1613613848.388,390.137,165.039,364.746,12.695
1613613848.392,-782.715,-791.504,-925.293,-1000.000
1613613848.396,779.785,827.637,-1000.000,-767.090
1613613848.400,-705.078,-719.238,349.121,846.680
1613613848.404,-184.082,-654.785,664.551,786.621
1613613848.408,-825.195,-1000.000,-749.512,-933.105
1613613848.411,874.512,979.980,-1000.000,-1000.000
1613613848.415,-702.148,-637.207,5.859,670.898
1613613848.419,-859.863,-991.211,732.422,-996.582
1613613848.423,801.270,633.301,-542.480,-677.246
1613613848.427,-836.426,-786.133,-1000.000,-1000.000
1613613848.431,-332.031,-215.332,-351.562,475.098
1613613848.435,-995.117,-992.188,673.340,-922.363
1613613848.439,546.387,510.254,-12.695,-421.387
1613613848.443,-766.113,-781.250,-1000.000,-1000.000
1613613848.447,527.832,607.422,-777.832,-382.812
1613613848.451,-714.355,-791.992,507.324,-967.285
1613613848.455,292.969,16.602,493.164,263.672
1613613848.458,-795.898,-816.406,-850.098,-1000.000
1613613848.462,833.984,864.746,-1000.000,-875.000
1613613848.466,-693.848,-701.660,207.031,749.023
1613613848.470,-440.918,-786.621,679.199,880.371
1613613848.474,-917.969,906.738,-686.035,-867.676
1613613848.475,962.891,-940.430,-1000.000,-1000.000
1613613848.479,-613.281,-535.645,-166.016,679.199
1613613848.483,-949.707,-1000.000,715.820,994.141
1613613848.487,678.223,574.707,-402.344,-660.156
1613613848.491,-782.227,-764.160,-1000.000,-1000.000
1613613848.495,-105.957,72.266,-550.293,345.703
1613613848.499,-942.871,-966.309,618.652,-885.254
1613613848.502,518.066,383.301,295.898,-313.965
1613613848.506,-768.066,-782.227,-967.285,-1000.000
1613613848.510,618.652,712.402,-900.879,-571.777
1613613848.514,-799.316,-806.152,485.840,969.238
1613613848.518,121.094,-289.551,562.500,503.906
1613613848.519,-785.645,-866.699,-817.383,-1000.000
1613613848.523,845.703,890.625,-1000.000,-958.984
1613613848.527,-701.660,-702.148,122.070,651.367
1613613848.531,-707.520,-893.066,711.914,-991.211
1613613848.535,952.148,790.039,-639.160,-718.750
1613613848.539,-939.453,-867.676,-1000.000,-1000.000
1613613848.543,-500.000,-435.059,-206.543,657.715
1613613848.546,-1000.000,-1000.000,737.793,979.980
1613613848.550,558.594,555.176,-278.320,-628.418
1613613848.554,-744.141,-759.277,-1000.000,-1000.000
1613613848.558,181.152,330.078,-605.469,45.410
1613613848.562,-854.492,-925.293,577.637,-896.484
1613613848.565,485.352,259.766,272.461,-186.035
1613613848.569,-783.203,-790.039,-953.125,-1000.000
1613613848.573,737.793,805.176,-978.027,-687.988
1613613848.577,-735.352,-730.957,352.539,892.578
1613613848.581,-86.914,-522.461,610.840,726.074
1613613848.585,-807.617,-939.941,-768.066,-969.238
1613613848.589,864.746,937.988,-1000.000,-992.188
1613613848.592,-702.148,-671.875,-18.555,666.504
1613613848.596,-828.125,-962.402,707.520,-994.629
1613613848.600,843.262,679.199,-567.871,-677.734
1613613848.604,-860.840,-806.641,-1000.000,-1000.000
1613613848.608,-377.930,-268.066,-377.441,505.859
1613613848.611,-998.535,-980.469,663.086,-961.914
1613613848.615,543.457,533.691,-79.102,-525.879
1613613848.619,-749.023,-769.043,-1000.000,-1000.000
1613613848.623,429.199,524.902,-765.625,-182.617
1613613848.627,-843.262,-887.207,507.324,-913.574
1613613848.631,326.660,77.637,465.332,132.324
1613613848.635,-787.109,-799.805,-858.398,-1000.000
1613613848.638,821.777,845.703,-1000.000,-793.457
1613613848.642,-685.547,-708.496,253.418,818.359
1613613848.646,-378.906,-744.629,679.199,866.699
1613613848.650,-882.812,948.242,-711.426,-863.770
1613613848.654,917.480,-985.352,-1000.000,-1000.000
1613613848.669,-683.105,-604.980,-90.332,678.711
1613613848.673,-890.625,-1000.000,746.094,995.605
1613613848.677,751.953,597.168,-450.195,-660.156
1613613848.681,-809.082,-773.438,-1000.000,-1000.000
1613613848.685,-202.637,-57.129,-500.000,376.953
1613613848.689,-965.820,-968.262,644.531,-915.039
1613613848.693,527.832,452.637,73.242,-407.227
1613613848.696,-761.719,-778.320,-1000.000,-1000.000
1613613848.700,566.406,663.574,-826.660,-401.367
1613613848.704,-822.754,-826.660,507.324,-967.285
1613613848.708,180.664,-125.977,543.945,362.305
1613613848.712,-782.715,-828.125,-838.867,-1000.000
1613613848.715,837.402,872.559,-1000.000,-940.430
1613613848.719,-700.684,-700.684,195.312,668.457
1613613848.723,-572.754,-845.215,704.102,960.449
1613613848.727,-978.516,853.027,-665.039,-792.480
1613613848.731,-983.398,-905.273,-1000.000,-1000.000
1613613848.735,-555.176,-492.676,-173.340,685.059
1613613848.739,-964.355,-1000.000,735.352,987.793
1613613848.742,641.602,563.477,-329.102,-648.926
1613613848.746,-764.160,-760.254,-1000.000,-1000.000
1613613848.750,26.367,204.102,-583.496,249.023
1613613848.754,-905.762,-949.219,578.125,-860.352
1613613848.758,502.930,320.312,186.035,-226.074
1613613848.760,-770.508,-786.133,-991.699,-1000.000
1613613848.764,659.180,760.742,-930.176,-611.816
1613613848.768,-796.387,-771.484,408.691,957.520
1613613848.772,40.527,-414.551,617.188,677.246
1613613848.776,-787.109,-899.414,-782.227,-986.816
1613613848.780,852.539,905.762,-1000.000,-986.816
1613613848.784,-704.590,-700.684,27.344,662.109
1613613848.787,-760.742,-930.176,718.750,-987.793
1613613848.791,915.039,734.863,-554.688,-692.383
1613613848.795,-907.227,-838.867,-1000.000,-1000.000
1613613848.799,-453.125,-369.141,-354.004,592.285
1613613848.803,-1000.000,-993.164,674.316,-984.863
1613613848.805,553.711,547.852,-171.875,-580.078
1613613848.809,-746.582,-764.160,-1000.000,-1000.000
1613613848.813,264.648,430.664,-727.051,-12.695
1613613848.817,-886.719,-912.109,547.852,-880.859
1613613848.821,394.043,175.781,376.953,-81.543
1613613848.825,-782.715,-791.016,-933.105,-1000.000
1613613848.829,777.832,826.660,-1000.000,-763.184
1613613848.832,-708.496,-719.238,364.746,826.172
1613613848.836,-183.594,-635.254,667.969,792.480
1613613848.840,-824.707,-989.258,-757.324,-934.082
1613613848.844,875.000,973.633,-1000.000,-1000.000
1613613848.848,-703.125,-641.113,-35.156,670.898
1613613848.851,-854.004,-987.793,737.305,-996.094
1613613848.855,809.082,634.277,-520.020,-677.246
1613613848.859,-839.844,-789.551,-1000.000,-1000.000
1613613848.863,-340.332,-175.293,-401.367,475.098
1613613848.867,-996.094,-974.609,652.832,-919.434
1613613848.871,541.504,500.000,-19.043,-425.293
1613613848.875,-756.348,-771.973,-1000.000,-1000.000
1613613848.878,501.953,586.426,-749.512,-326.660
1613613848.882,-832.031,-867.676,525.879,-947.754
1613613848.886,264.160,-9.277,480.469,254.883
1613613848.890,-781.738,-810.059,-847.656,-1000.000
1613613848.894,826.660,860.840,-1000.000,-875.488
1613613848.894,-690.918,-698.242,209.961,747.070
1613613848.898,-442.383,-800.293,703.125,889.648
1613613848.902,-916.504,901.855,-684.082,-857.422
1613613848.906,957.520,-948.242,-1000.000,-1000.000
1613613848.910,-621.582,-556.152,-129.395,680.176
1613613848.914,-950.684,-1000.000,730.469,991.211
1613613848.918,679.688,575.684,-376.465,-654.785
1613613848.921,-784.668,-764.648,-1000.000,-1000.000
1613613848.925,-134.277,58.594,-569.336,312.500
1613613848.929,-950.684,-962.402,588.379,-887.207
1613613848.933,521.973,397.949,172.852,-310.547
1613613848.937,-769.531,-782.227,-1000.000,-1000.000
1613613848.940,620.117,712.402,-889.648,-594.727
1613613848.944,-791.992,-803.223,484.375,959.473
1613613848.948,134.766,-262.207,598.633,487.305
1613613848.952,-784.180,-857.910,-810.059,-1000.000
1613613848.956,844.727,887.207,-1000.000,-956.055
1613613848.960,-700.684,-701.172,110.840,653.809
1613613848.964,-698.242,-888.184,730.469,995.117
1613613848.967,959.473,795.898,-624.023,-731.445
1613613848.971,-948.242,-870.117,-1000.000,-1000.000
1613613848.975,-514.160,-437.988,-263.184,638.184
1613613848.979,-1000.000,-1000.000,689.453,981.934
1613613848.983,560.547,555.664,-291.992,-628.418
1613613848.984,-745.117,-759.277,-1000.000,-1000.000
1613613848.988,158.691,322.754,-656.738,44.922
1613613848.992,-862.305,-930.176,554.688,-896.484
1613613848.996,487.793,258.789,272.949,-186.035
1613613849.000,-782.227,-789.551,-965.332,-1000.000
1613613849.004,725.098,798.828,-940.918,-687.500
1613613849.008,-752.441,-740.234,395.996,888.672
1613613849.011,-93.750,-539.062,623.535,747.559
1613613849.015,-810.547,-945.312,-769.531,-952.637
1613613849.019,865.723,935.547,-1000.000,-997.070
1613613849.023,-701.172,-677.246,-2.930,667.480
1613613849.027,-832.520,-973.145,717.773,-992.676
1613613849.033,853.027,673.340,-564.941,-682.617
1613613849.037,-880.371,-814.941,-1000.000,-1000.000
1613613849.041,-435.059,-308.105,-409.180,530.762
1613613849.045,-999.512,-986.328,643.066,-963.867
1613613849.049,546.387,534.668,-94.727,-525.391
1613613849.053,-751.465,-769.043,-1000.000,-1000.000
1613613849.057,430.176,521.973,-771.973,-174.805
1613613849.060,-837.891,-883.789,508.789,-920.898
1613613849.064,333.984,100.586,448.730,37.109
1613613849.068,-786.621,-796.387,-877.930,-1000.000
1613613849.072,820.801,845.215,-1000.000,-818.848
1613613849.076,-684.082,-705.078,258.301,772.461
1613613849.090,-365.723,-720.703,680.176,864.746
1613613849.094,-873.047,966.797,-707.520,-882.324
1613613849.098,907.227,-997.070,-1000.000,-1000.000
1613613849.102,-682.617,-603.027,-127.441,675.781
1613613849.106,-793.457,-907.227,651.367,895.996
1613613849.110,790.039,632.812,-376.465,-694.336
1613613849.114,-831.055,-791.992,-1000.000,-1000.000
1613613849.117,-234.375,-72.754,-546.387,365.723
1613613849.121,-977.051,-979.004,622.559,-905.273
1613613849.125,532.715,453.613,82.031,-389.160
1613613849.129,-764.648,-778.320,-1000.000,-1000.000
1613613849.133,567.383,655.273,-832.520,-416.016
1613613849.135,-826.172,-836.914,505.371,-971.191
1613613849.139,174.805,-133.301,541.992,389.160
1613613849.143,-782.227,-830.566,-837.402,-1000.000
1613613849.147,837.891,873.535,-1000.000,-941.895
1613613849.151,-700.195,-700.195,183.105,672.852
1613613849.155,-574.219,-850.586,715.820,959.473
1613613849.159,-974.121,853.027,-656.738,-792.480
1613613849.162,-995.117,-913.574,-1000.000,-1000.000
1613613849.166,-576.172,-513.672,-115.234,685.059
1613613849.170,-964.355,-1000.000,736.816,987.793
1613613849.174,640.625,564.453,-364.258,-648.438
1613613849.178,-765.137,-760.742,-1000.000,-1000.000
1613613849.180,20.508,191.406,-632.324,250.977
1613613849.184,-907.715,-952.148,566.895,-864.258
1613613849.188,503.906,325.195,213.867,-238.281
1613613849.192,-770.996,-786.133,-996.094,-1000.000
1613613849.196,659.180,758.789,-926.758,-643.555
1613613849.200,-801.758,-778.320,427.734,937.500
1613613849.204,46.387,-397.461,611.328,678.223
1613613849.207,-788.574,-897.461,-786.621,-987.305
1613613849.211,752.930,804.688,-1000.000,-886.719
1613613849.215,-739.746,-736.328,34.180,696.289
1613613849.219,-737.305,-907.715,700.684,996.094
1613613849.223,912.109,734.863,-572.754,-684.570
1613613849.225,-904.785,-837.891,-1000.000,-1000.000
1613613849.229,-450.195,-371.582,-358.887,591.797
1613613849.233,-1000.000,-994.629,660.645,-983.398
1613613849.237,553.711,548.828,-182.129,-577.637
1613613849.241,-746.582,-764.160,-1000.000,-1000.000
1613613849.245,265.137,417.969,-705.566,-21.484
1613613849.249,-888.184,-921.387,558.105,-879.883
1613613849.252,388.672,170.898,481.934,19.043
1613613849.256,-774.902,-791.016,-875.000,-1000.000
1613613849.260,750.977,821.289,-1000.000,-768.555
1613613849.264,-743.164,-727.051,322.266,844.238
1613613849.268,-177.734,-652.344,656.250,787.598
1613613849.271,-825.684,-997.070,-738.770,-933.105
1613613849.275,874.023,972.168,-1000.000,-1000.000
1613613849.279,-702.148,-649.414,-30.273,670.898
1613613849.283,-859.863,-987.793,746.094,-996.582
1613613849.287,805.664,634.277,-536.133,-676.758
1613613849.291,-841.797,-790.527,-1000.000,-1000.000
1613613849.295,-349.121,-182.129,-410.156,472.168
1613613849.298,-996.582,-977.051,656.250,-919.434
1613613849.302,541.504,500.488,-38.574,-424.805
1613613849.306,-752.930,-771.973,-1000.000,-1000.000
1613613849.310,479.492,578.613,-786.133,-331.055
1613613849.314,-849.609,-875.000,490.723,-949.219
1613613849.316,269.043,-15.137,471.191,255.859
1613613849.320,-777.832,-811.035,-857.422,-1000.000
1613613849.324,820.801,859.375,-1000.000,-869.141
1613613849.328,-688.965,-702.148,187.500,744.629
1613613849.332,-342.773,-796.875,593.750,791.504
1613613849.336,-883.301,903.320,-713.379,-889.648
1613613849.340,942.871,-947.754,-1000.000,-1000.000
1613613849.343,-610.840,-555.176,-173.340,673.828
1613613849.347,-954.102,-1000.000,705.566,990.723
1613613849.351,678.711,575.684,-397.461,-647.461
1613613849.355,-783.691,-763.184,-1000.000,-1000.000
1613613849.359,-128.418,72.266,-602.051,268.555
1613613849.359,-948.730,-958.008,568.848,-887.695
1613613849.363,520.996,396.973,178.223,-308.105
1613613849.367,-767.578,-780.762,-1000.000,-1000.000
1613613849.371,605.469,701.660,-897.461,-597.168
1613613849.375,-817.871,-819.824,448.730,958.008
1613613849.379,112.793,-297.852,602.539,545.898
1613613849.383,-788.086,-870.117,-783.203,-1000.000
1613613849.386,848.145,891.602,-1000.000,-963.867
1613613849.390,-700.684,-699.707,61.035,650.879
1613613849.394,-741.211,-904.785,712.402,-979.004
1613613849.398,945.312,785.156,-601.074,-705.566
1613613849.402,-951.172,-876.465,-1000.000,-1000.000
1613613849.420,-537.598,-461.914,-292.969,667.969
1613613849.424,-1000.000,-1000.000,695.312,984.375
1613613849.428,572.754,564.941,-263.184,-635.254
1613613849.432,-751.465,-763.672,-1000.000,-1000.000
1613613849.436,-25.391,190.430,-481.934,148.926
1613613849.440,-930.176,-979.980,635.254,-862.305
1613613849.444,513.672,272.949,310.547,-202.148
1613613849.447,-799.316,-799.316,-933.594,-1000.000
1613613849.451,733.887,803.223,-964.844,-690.918
1613613849.455,-726.562,-743.652,443.359,897.949
1613613849.459,-93.262,-515.137,648.438,718.750
1613613849.463,-820.312,-940.430,-774.414,-967.773
1613613849.465,770.996,833.984,-1000.000,-892.578
1613613849.469,-737.793,-711.426,41.016,700.684
1613613849.473,-814.941,-949.707,709.473,988.281
1613613849.477,842.285,672.852,-562.500,-666.992
1613613849.481,-872.070,-810.547,-1000.000,-1000.000
1613613849.485,-418.945,-298.340,-388.184,492.188
1613613849.489,-1000.000,-988.281,660.156,-960.938
1613613849.492,551.758,535.156,-105.469,-526.367
1613613849.496,-751.465,-769.043,-1000.000,-1000.000
1613613849.500,319.824,479.004,-761.719,-188.965
1613613849.504,-909.668,-922.852,506.836,-907.227
1613613849.508,311.523,55.176,464.355,212.402
1613613849.509,-784.668,-805.664,-870.117,-1000.000
1613613849.513,793.945,841.797,-1000.000,-804.688
1613613849.517,-729.004,-718.750,290.527,823.730
1613613849.521,-382.324,-763.184,686.035,864.746
1613613849.525,-880.371,940.918,-691.895,-863.770
1613613849.529,900.879,-993.652,-1000.000,-1000.000
1613613849.533,-709.961,-625.488,-114.746,678.711
1613613849.536,-887.207,-1000.000,721.191,995.117
1613613849.540,751.953,595.215,-352.539,-660.156
1613613849.544,-810.059,-772.461,-1000.000,-1000.000
1613613849.548,-205.078,-63.477,-563.965,378.906
1613613849.552,-966.309,-968.262,597.656,-925.293
1613613849.554,528.320,458.984,59.570,-412.109
1613613849.558,-763.184,-778.809,-1000.000,-1000.000
1613613849.562,569.336,660.645,-857.422,-531.250
1613613849.566,-830.078,-833.984,496.094,978.516
1613613849.570,163.086,-140.625,556.641,431.641
1613613849.574,-782.227,-831.543,-833.008,-1000.000
1613613849.578,837.891,874.023,-1000.000,-953.613
1613613849.581,-700.684,-699.707,167.480,660.645
1613613849.585,-574.219,-853.516,722.168,961.426
1613613849.589,-974.609,849.121,-664.551,-792.969
1613613849.593,-994.141,-910.645,-1000.000,-1000.000
1613613849.597,-567.383,-509.277,-197.266,685.059
1613613849.600,-980.957,-1000.000,706.055,987.793
1613613849.604,627.930,567.871,-343.262,-649.414
1613613849.608,-766.602,-764.648,-1000.000,-1000.000
1613613849.612,-34.668,162.109,-649.414,246.094
1613613849.616,-922.852,-974.121,549.316,-854.004
1613613849.620,510.742,306.641,294.434,-208.496
1613613849.624,-770.508,-785.156,-960.449,-1000.000
1613613849.627,640.625,745.117,-889.648,-613.281
1613613849.631,-814.453,-794.922,440.918,958.008
1613613849.635,44.922,-448.242,593.262,677.734
1613613849.639,-788.574,-913.574,-775.391,-986.816
1613613849.643,852.051,910.156,-1000.000,-986.816
1613613849.645,-700.684,-701.660,3.906,662.109
1613613849.649,-783.691,-940.430,717.773,-987.793
1613613849.653,902.344,725.586,-571.777,-692.871
1613613849.657,-911.133,-841.309,-1000.000,-1000.000
1613613849.661,-474.609,-385.742,-376.953,584.961
1613613849.665,-1000.000,-995.117,657.715,-965.332
1613613849.669,554.688,549.805,-109.375,-539.062
1613613849.672,-747.559,-765.137,-1000.000,-1000.000
1613613849.676,265.137,422.852,-748.535,-76.660
1613613849.680,-888.672,-918.945,524.414,-894.531
1613613849.684,390.137,168.945,430.176,25.879
1613613849.688,-779.785,-792.480,-888.672,-1000.000
1613613849.691,767.578,827.148,-1000.000,-786.133
1613613849.695,-723.145,-720.215,301.758,827.637
1613613849.699,-188.965,-657.715,679.199,791.504
1613613849.703,-827.637,-999.512,-737.305,-934.570
1613613849.707,874.512,975.098,-1000.000,-1000.000
1613613849.711,-698.730,-645.020,-45.898,671.387
1613613849.715,-876.465,-992.676,748.047,-998.535
1613613849.718,790.527,628.418,-514.160,-672.852
1613613849.722,-838.867,-789.551,-1000.000,-1000.000
1613613849.726,-352.051,-180.176,-430.176,450.195
1613613849.730,-996.582,-980.469,634.277,-920.410
1613613849.734,541.504,495.117,-29.297,-421.875
1613613849.735,-752.930,-772.949,-1000.000,-1000.000
1613613849.739,474.609,578.125,-780.762,-358.887
1613613849.743,-858.887,-884.277,521.484,-958.984
1613613849.747,260.254,-56.641,539.062,259.766
1613613849.751,-786.621,-820.312,-846.680,-1000.000
1613613849.755,830.566,863.770,-1000.000,-874.023
1613613849.759,-693.359,-705.566,304.199,744.629
1613613849.762,-493.652,-803.711,687.988,898.438
1613613849.766,-936.523,895.508,-691.406,-848.145
1613613849.770,970.215,-941.406,-1000.000,-1000.000
1613613849.774,-614.258,-544.922,-180.176,682.129
1613613849.778,-960.449,-1000.000,703.613,987.793
1613613849.795,666.992,572.266,-402.344,-646.484
1613613849.799,-780.762,-763.184,-1000.000,-1000.000
1613613849.803,-117.188,74.219,-601.562,263.184
1613613849.807,-945.801,-964.844,562.988,-888.184
1613613849.811,519.531,385.254,170.898,-307.617
1613613849.815,-768.066,-781.738,-1000.000,-1000.000
1613613849.819,610.352,707.520,-881.836,-599.609
1613613849.822,-821.777,-816.406,462.402,957.031
1613613849.826,95.215,-316.895,579.590,596.191
1613613849.830,-788.574,-875.488,-790.039,-1000.000
1613613849.834,849.609,894.531,-1000.000,-972.656
1613613849.838,-701.660,-702.148,21.484,655.762
1613613849.839,-748.047,-900.879,703.125,-985.352
1613613849.843,938.965,782.715,-589.844,-693.359
1613613849.847,-941.895,-867.676,-1000.000,-1000.000
1613613849.851,-523.438,-439.941,-325.195,609.863
1613613849.855,-1000.000,-1000.000,683.594,985.840
1613613849.859,562.500,556.152,-189.941,-628.906
1613613849.863,-749.023,-761.230,-1000.000,-1000.000
1613613849.866,151.855,328.125,-704.590,44.434
1613613849.870,-888.184,-938.477,556.641,-895.508
1613613849.874,458.008,236.816,296.875,-182.129
1613613849.878,-783.203,-790.527,-968.262,-1000.000
1613613849.882,732.422,803.223,-970.215,-701.660
1613613849.884,-759.766,-739.746,387.695,873.047
1613613849.888,-151.855,-566.895,641.113,769.043
1613613849.892,-822.266,-956.543,-769.043,-939.453
1613613849.896,873.047,941.895,-1000.000,-1000.000
1613613849.900,-705.566,-674.316,-25.391,669.922
1613613849.904,-831.055,-978.027,715.332,-995.605
1613613849.908,852.051,666.504,-551.270,-677.246
1613613849.911,-877.930,-812.988,-1000.000,-1000.000
1613613849.915,-428.711,-300.293,-342.773,492.188
1613613849.919,-1000.000,-998.047,675.781,-935.059
1613613849.923,556.152,533.203,-97.656,-504.883
1613613849.927,-755.859,-773.438,-1000.000,-1000.000
1613613849.931,288.086,409.668,-677.734,4.395
1613613849.935,-918.945,-941.895,551.270,-828.125
1613613849.939,311.035,57.129,480.957,203.125
1613613849.943,-794.434,-814.941,-848.145,-1000.000
1613613849.947,820.312,852.539,-1000.000,-844.238
1613613849.951,-696.777,-710.938,259.277,792.969
1613613849.955,-386.719,-760.742,682.129,871.094
1613613849.958,-883.301,938.965,-697.754,-865.234
1613613849.962,911.621,-982.422,-1000.000,-1000.000
1613613849.966,-687.500,-604.004,-152.832,678.711
1613613849.970,-909.180,-1000.000,714.844,995.605
1613613849.974,736.328,593.262,-396.484,-662.109
1613613849.974,-810.059,-775.879,-1000.000,-1000.000
1613613849.978,-236.328,-61.035,-563.965,363.770
1613613849.982,-973.145,-985.352,596.680,-884.766
1613613849.986,531.738,428.711,144.531,-333.984
1613613849.990,-762.207,-778.809,-1000.000,-1000.000
1613613849.994,549.316,654.785,-852.539,-437.500
1613613849.998,-849.609,-855.469,505.371,-972.656
1613613850.001,161.133,-216.309,616.699,459.961
1613613850.005,-784.180,-852.051,-794.922,-1000.000
1613613850.009,839.355,883.789,-1000.000,-959.473
1613613850.013,-701.172,-702.637,109.375,668.457
1613613850.017,-586.914,-866.211,691.895,959.473
1613613850.019,-982.910,831.543,-646.484,-792.480
1613613850.023,-986.328,-898.438,-1000.000,-1000.000
1613613850.027,-550.781,-491.211,-238.281,686.523
1613613850.031,-996.094,-1000.000,693.848,979.492
1613613850.035,594.727,562.012,-328.613,-635.742
1613613850.039,-754.883,-760.742,-1000.000,-1000.000
1613613850.043,51.758,233.398,-620.605,114.746
1613613850.046,-899.414,-949.219,578.125,-882.324
1613613850.050,500.000,299.805,264.160,-194.336
1613613850.054,-771.973,-786.621,-966.309,-1000.000
1613613850.058,672.363,771.973,-915.039,-689.941
1613613850.062,-781.250,-761.719,418.457,897.461
1613613850.065,37.109,-435.547,607.910,694.824
1613613850.069,-787.109,-905.762,-777.344,-992.676
1613613850.073,851.562,910.156,-1000.000,-985.352
1613613850.077,-696.777,-693.359,-18.555,662.598
1613613850.081,-807.129,-947.754,701.660,-988.770
1613613850.085,880.859,714.844,-567.383,-690.430
1613613850.089,-899.414,-834.473,-1000.000,-1000.000
1613613850.092,-462.891,-368.164,-387.695,575.195
1613613850.096,-1000.000,-993.652,643.066,-966.797
1613613850.100,555.664,549.805,-145.996,-538.574
1613613850.104,-748.535,-768.066,-1000.000,-1000.000
1613613850.108,249.023,424.316,-724.121,-63.965
1613613850.111,-900.879,-934.570,533.203,-929.688
1613613850.115,379.883,119.141,478.027,41.992
1613613850.119,-781.250,-797.852,-863.281,-1000.000
1613613850.123,758.301,827.637,-1000.000,-783.203
1613613850.127,-758.789,-728.027,292.969,818.848
1613613850.131,-301.270,-707.031,678.711,831.055
1613613850.135,-860.352,972.656,-698.242,-897.949
1613613850.138,889.648,989.746,-1000.000,-1000.000
1613613850.142,-703.613,-637.695,-109.863,676.270
1613613850.146,-893.066,-995.117,718.750,995.605
1613613850.150,768.555,616.211,-485.840,-659.668
1613613850.154,-828.613,-781.250,-1000.000,-1000.000
1613613850.170,-330.566,-131.836,-499.023,378.906
1613613850.174,-992.676,-970.703,607.422,-919.434
1613613850.178,541.504,488.281,-44.434,-416.992
1613613850.182,-761.230,-774.414,-1000.000,-1000.000
1613613850.186,522.461,610.840,-813.965,-388.672
1613613850.190,-840.820,-864.258,526.855,-968.750
1613613850.194,219.727,-75.684,537.109,263.184
1613613850.197,-785.645,-822.266,-857.910,-1000.000
1613613850.201,835.938,867.676,-1000.000,-886.719
1613613850.205,-696.777,-698.242,222.656,712.891
1613613850.209,-562.012,-833.984,688.965,945.312
1613613850.213,-958.008,875.488,-677.246,-801.270
1613613850.215,975.098,-937.012,-1000.000,-1000.000
1613613850.219,-627.930,-549.805,-167.969,684.570
1613613850.223,-959.473,-1000.000,713.867,987.793
1613613850.227,668.945,574.707,-360.352,-647.461
1613613850.231,-783.203,-768.555,-1000.000,-1000.000
1613613850.235,-145.996,64.941,-571.777,256.836
1613613850.239,-953.613,-989.258,604.492,-876.953
1613613850.242,524.414,348.145,226.074,-274.902
1613613850.246,-771.973,-784.180,-983.887,-1000.000
1613613850.250,610.840,715.332,-888.672,-604.492
1613613850.254,-839.844,-817.383,439.453,957.520
1613613850.258,59.570,-367.676,579.102,660.156
1613613850.261,-790.039,-890.137,-789.062,-994.141
1613613850.265,852.539,900.879,-1000.000,-983.887
1613613850.269,-703.613,-702.148,15.137,661.133
1613613850.273,-759.277,-916.992,708.008,-987.305
1613613850.277,932.617,764.648,-590.820,-691.406
1613613850.281,-937.988,-861.328,-1000.000,-1000.000
1613613850.285,-520.020,-435.059,-320.801,601.562
1613613850.288,-1000.000,-1000.000,677.734,987.305
1613613850.292,562.500,556.152,-126.953,-630.859
1613613850.296,-751.465,-764.648,-1000.000,-1000.000
1613613850.300,167.969,353.027,-738.281,27.344
1613613850.304,-911.621,-941.895,528.320,-872.559
1613613850.304,416.992,201.172,359.863,-18.066
1613613850.308,-779.785,-791.992,-922.363,-1000.000
1613613850.312,738.770,811.523,-1000.000,-749.512
1613613850.316,-759.766,-735.840,327.637,856.934
1613613850.320,-174.805,-603.516,641.602,784.180
1613613850.324,-826.172,-971.191,-754.395,-932.129
1613613850.328,875.000,951.660,-1000.000,-1000.000
1613613850.331,-706.055,-669.434,-19.531,670.898
1613613850.335,-838.379,-980.957,736.328,-996.582
1613613850.339,831.055,651.855,-556.152,-675.781
1613613850.343,-855.469,-799.805,-1000.000,-1000.000
1613613850.347,-371.582,-243.652,-410.645,483.887
1613613850.352,-999.512,-986.816,639.160,-941.895
1613613850.356,545.410,516.113,-40.527,-483.398
1613613850.360,-752.441,-771.484,-1000.000,-1000.000
1613613850.364,414.551,536.133,-751.953,-229.980
1613613850.368,-879.883,-902.344,528.320,-916.504
1613613850.372,279.785,0.977,515.137,241.211
1613613850.376,-786.133,-811.035,-839.355,-1000.000
1613613850.379,819.336,853.027,-1000.000,-854.980
1613613850.383,-701.172,-708.496,210.449,774.414
1613613850.387,-447.754,-800.781,662.598,875.000
1613613850.391,-901.367,912.109,-687.988,-866.211
1613613850.395,909.180,-975.098,-1000.000,-1000.000
1613613850.395,-695.801,-605.957,-141.602,678.711
1613613850.399,-946.289,-1000.000,722.168,995.605
1613613850.403,692.383,584.961,-398.926,-662.598
1613613850.407,-801.270,-774.902,-1000.000,-1000.000
1613613850.411,-236.816,-41.016,-560.059,361.816
1613613850.415,-972.656,-989.746,589.355,-884.277
1613613850.419,531.738,410.645,159.668,-315.430
1613613850.422,-765.137,-781.250,-1000.000,-1000.000
1613613850.426,569.336,676.758,-895.020,-552.734
1613613850.430,-834.473,-838.867,437.500,978.027
1613613850.434,157.227,-245.117,559.570,479.492
1613613850.438,-786.621,-857.422,-806.641,-1000.000
1613613850.440,843.262,886.230,-1000.000,-960.449
1613613850.444,-699.707,-701.172,59.082,663.574
1613613850.448,-680.176,-881.836,701.660,962.402
1613613850.452,974.121,812.012,-631.348,-782.715
1613613850.456,-966.797,-887.695,-1000.000,-1000.000
1613613850.460,-541.992,-475.098,-245.117,665.039
1613613850.464,-1000.000,-1000.000,725.586,978.027
1613613850.467,567.871,560.547,-260.742,-628.906
1613613850.471,-750.000,-761.719,-1000.000,-1000.000
1613613850.475,51.270,259.766,-654.785,47.852
1613613850.479,-899.902,-951.660,558.105,-895.996
1613613850.483,501.465,272.949,281.738,-186.035
1613613850.485,-778.809,-788.574,-974.121,-1000.000
1613613850.489,682.129,778.809,-922.852,-688.477
1613613850.493,-800.293,-763.184,460.449,895.508
1613613850.497,-79.102,-521.484,619.629,707.031
1613613850.501,-811.523,-938.477,-778.809,-983.398
1613613850.505,865.234,926.270,-1000.000,-988.281
1613613850.509,-700.684,-689.453,-1.465,665.039
1613613850.512,-833.984,-967.285,705.078,-993.164
1613613850.516,855.957,685.547,-568.359,-680.664
1613613850.520,-886.719,-822.754,-1000.000,-1000.000
1613613850.524,-450.684,-339.355,-395.508,520.508
1613613850.528,-1000.000,-991.211,638.672,-963.379
1613613850.532,554.688,542.969,-136.719,-525.879
1613613850.536,-750.488,-769.043,-1000.000,-1000.000
1613613850.540,274.902,457.031,-766.113,-179.688
1613613850.544,-915.527,-926.758,497.559,-916.504
1613613850.548,341.309,86.426,441.895,102.051
1613613850.552,-788.574,-802.734,-873.535,-1000.000
1613613850.556,791.016,837.891,-1000.000,-789.062
1613613850.559,-731.445,-720.215,242.188,815.918
1613613850.563,-378.906,-743.164,671.387,867.188
1613613850.567,-879.883,952.637,-694.824,-863.770
1613613850.571,900.391,-997.559,-1000.000,-1000.000
1613613850.575,-708.984,-625.000,-129.395,678.711
1613613850.589,-893.066,-1000.000,720.703,995.605
1613613850.593,766.113,609.375,-428.711,-665.039
1613613850.597,-828.613,-786.133,-1000.000,-1000.000
1613613850.601,-288.574,-110.840,-534.180,376.953
1613613850.605,-884.766,-886.230,576.172,980.957
1613613850.609,571.777,490.723,164.062,-451.660
1613613850.613,-779.297,-792.969,-1000.000,-1000.000
1613613850.616,543.945,635.254,-867.676,-407.227
1613613850.620,-858.887,-867.188,502.930,-962.402
1613613850.624,172.363,-144.043,546.387,388.672
1613613850.628,-784.180,-836.914,-839.355,-1000.000
1613613850.632,838.379,875.488,-1000.000,-943.359
1613613850.635,-699.707,-700.195,190.430,672.363
1613613850.639,-578.125,-854.492,699.707,959.961
1613613850.643,-952.637,867.676,-674.316,-805.176
1613613850.647,969.238,-935.059,-1000.000,-1000.000
1613613850.651,-623.047,-541.992,-194.336,693.359
1613613850.655,-690.918,-721.680,474.609,698.730
1613613850.659,756.348,694.824,-422.363,-772.461
1613613850.662,-823.730,-817.383,-1000.000,-1000.000
1613613850.666,-54.688,139.160,-571.777,226.562
1613613850.670,-942.871,-990.723,605.957,-855.469
1613613850.674,517.090,327.148,200.195,-233.887
1613613850.678,-775.391,-788.574,-981.445,-1000.000
1613613850.680,648.926,747.070,-937.988,-653.320
1613613850.684,-807.129,-789.551,412.109,924.805
1613613850.688,42.969,-408.203,598.145,686.523
1613613850.692,-788.086,-898.438,-791.992,-990.234
1613613850.696,852.051,904.785,-1000.000,-985.840
1613613850.700,-702.148,-702.148,15.137,662.598
1613613850.704,-773.926,-928.223,709.473,-987.793
1613613850.707,911.133,744.141,-575.684,-692.383
1613613850.711,-915.039,-846.680,-1000.000,-1000.000
1613613850.715,-477.539,-402.344,-354.004,593.750
1613613850.719,-1000.000,-999.512,662.109,-991.699
1613613850.723,557.129,552.734,-112.305,-577.148
1613613850.725,-749.023,-765.625,-1000.000,-1000.000
1613613850.729,224.121,396.973,-733.398,-94.727
1613613850.733,-902.344,-935.547,540.039,-900.391
1613613850.737,394.531,166.504,403.320,28.809
1613613850.741,-778.320,-791.992,-909.180,-1000.000
1613613850.745,744.629,816.406,-1000.000,-777.344
1613613850.749,-764.648,-733.887,351.074,834.961
1613613850.752,-246.094,-683.594,688.477,789.551
1613613850.756,-846.191,991.211,-729.492,-934.082
1613613850.760,882.324,967.285,-1000.000,-1000.000
1613613850.764,-700.684,-666.504,-57.129,670.898
1613613850.768,-888.184,-997.559,727.539,-996.582
1613613850.771,786.621,628.418,-491.699,-677.246
1613613850.775,-848.145,-796.387,-1000.000,-1000.000
1613613850.779,-387.207,-227.051,-457.031,475.098
1613613850.783,-998.047,-992.676,640.137,-920.898
1613613850.787,544.434,498.535,-8.789,-423.340
1613613850.791,-754.883,-773.926,-1000.000,-1000.000
1613613850.795,456.543,563.965,-787.598,-354.980
1613613850.798,-868.652,-894.531,507.324,-957.520
1613613850.802,260.254,-52.246,470.703,259.277
1613613850.806,-788.574,-821.289,-846.191,-1000.000
1613613850.810,832.520,863.281,-1000.000,-874.023
1613613850.814,-693.848,-704.102,147.461,744.629
1613613850.814,-517.090,-816.895,653.809,898.926
1613613850.818,-933.594,897.461,-686.035,-853.027
1613613850.822,952.148,-957.031,-1000.000,-1000.000
1613613850.826,-637.207,-566.406,-178.223,680.176
1613613850.830,-860.352,-913.574,626.465,888.672
1613613850.834,705.078,610.352,-397.461,-682.129
1613613850.838,-802.246,-784.180,-1000.000,-1000.000
1613613850.841,-155.762,42.480,-612.793,263.672
1613613850.845,-960.449,-984.863,567.871,-885.254
1613613850.849,525.391,379.883,181.152,-308.105
1613613850.853,-766.602,-782.227,-999.512,-1000.000
1613613850.857,582.520,694.336,-907.227,-599.121
1613613850.860,-859.375,-835.938,437.988,957.520
1613613850.864,79.590,-342.773,613.281,588.867
1613613850.868,-791.504,-885.254,-777.344,-1000.000
1613613850.872,851.562,897.949,-1000.000,-971.191
1613613850.876,-702.148,-699.707,38.086,654.785
1613613850.880,-761.719,-919.434,726.562,-981.934
1613613850.884,938.965,772.461,-573.242,-700.684
1613613850.887,-954.102,-876.953,-1000.000,-1000.000
1613613850.891,-551.270,-473.145,-328.613,645.020
1613613850.895,-1000.000,-1000.000,671.387,981.934
1613613850.899,569.336,561.035,-229.980,-629.395
1613613850.903,-754.883,-765.137,-1000.000,-1000.000
1613613850.919,63.477,284.180,-697.754,36.621
1613613850.923,-941.895,-969.727,543.457,-880.371
1613613850.927,452.637,229.980,319.824,-114.746
1613613850.931,-783.203,-793.945,-947.266,-1000.000
1613613850.935,607.910,693.848,-896.484,-596.680
1613613850.939,-830.078,-790.527,420.898,923.340
1613613850.943,-150.879,-580.566,638.672,760.254
1613613850.946,-835.938,-976.074,-757.812,-921.387
1613613850.950,878.418,946.777,-1000.000,-1000.000
1613613850.954,-712.402,-685.059,7.324,676.270
1613613850.958,-823.730,-973.145,717.285,997.559
1613613850.962,849.121,663.574,-558.594,-673.340
1613613850.965,-976.074,-871.582,-1000.000,-1000.000
1613613850.969,-457.520,-318.359,-355.957,526.367
1613613850.973,-985.840,-980.957,652.832,-978.516
1613613850.977,541.992,524.414,-95.703,-517.090
1613613850.981,-751.465,-769.531,-1000.000,-1000.000
1613613850.985,381.836,507.324,-772.461,-209.473
1613613850.989,-894.043,-912.109,512.207,-914.551
1613613850.992,284.180,36.621,463.379,207.520
1613613850.996,-782.227,-807.129,-865.234,-1000.000
1613613851.000,804.688,848.145,-1000.000,-835.449
1613613851.004,-713.867,-710.938,215.332,788.574
1613613851.008,-385.254,-786.621,675.293,872.070
1613613851.009,-879.883,927.246,-689.941,-865.723
1613613851.013,897.461,-990.723,-1000.000,-1000.000
1613613851.017,-696.777,-626.465,-132.324,678.711
1613613851.021,-944.336,-1000.000,727.051,995.605
1613613851.025,714.355,593.750,-318.359,-662.598
1613613851.029,-818.848,-783.203,-1000.000,-1000.000
1613613851.033,-345.703,-117.188,-558.105,361.328
1613613851.036,-995.605,-1000.000,602.051,-880.371
1613613851.040,544.434,423.828,215.820,-319.336
1613613851.044,-767.578,-780.762,-991.211,-1000.000
1613613851.048,538.086,644.043,-882.812,-465.332
1613613851.052,-859.863,-864.746,485.840,-983.887
1613613851.054,164.062,-224.609,552.734,464.844
1613613851.058,-773.926,-842.773,-831.543,-1000.000
1613613851.062,830.566,872.559,-1000.000,-950.684
1613613851.066,-712.402,-708.984,135.742,683.594
1613613851.070,-327.637,-591.309,334.961,582.520
1613613851.074,-860.840,944.336,-811.035,-971.680
1613613851.078,956.055,-950.684,-1000.000,-972.656
1613613851.081,-541.016,-476.074,-232.910,650.391
1613613851.085,-1000.000,-1000.000,741.699,986.328
1613613851.089,579.590,563.477,-325.684,-629.883
1613613851.093,-753.906,-762.207,-1000.000,-1000.000
1613613851.097,31.738,219.727,-625.000,61.523
1613613851.100,-905.273,-960.938,553.711,-893.066
1613613851.104,503.418,289.551,236.816,-187.988
1613613851.108,-775.391,-787.598,-971.680,-1000.000
1613613851.112,662.598,762.695,-953.613,-688.965
1613613851.116,-817.871,-781.250,379.395,896.973
1613613851.120,-63.965,-520.508,630.371,698.242
1613613851.124,-810.547,-937.988,-762.207,-990.234
1613613851.127,863.770,919.434,-1000.000,-986.328
1613613851.131,-700.195,-700.684,-7.324,663.086
1613613851.135,-829.102,-963.379,702.148,-990.234
1613613851.139,867.188,696.289,-571.289,-687.012
1613613851.143,-902.344,-833.008,-1000.000,-1000.000
1613613851.144,-481.445,-378.418,-394.043,554.199
1613613851.148,-1000.000,-994.141,653.320,-965.820
1613613851.152,555.664,549.805,-103.516,-525.879
1613613851.156,-749.512,-768.555,-1000.000,-1000.000
1613613851.160,270.020,439.453,-771.484,-174.805
1613613851.164,-901.367,-928.223,512.207,-921.387
1613613851.168,365.723,118.164,458.496,39.551
1613613851.171,-785.156,-798.340,-865.723,-1000.000
1613613851.175,774.414,833.008,-1000.000,-782.715
1613613851.179,-745.605,-720.703,240.234,820.801
1613613851.183,-345.215,-717.285,655.273,821.777
1613613851.187,-871.582,971.191,-717.285,-906.738
1613613851.205,895.508,984.375,-1000.000,-1000.000
1613613851.209,-705.078,-645.508,-106.445,674.805
1613613851.213,-898.926,-1000.000,725.098,997.559
1613613851.217,770.508,610.840,-480.469,-664.551
1613613851.221,-838.867,-790.039,-1000.000,-1000.000
1613613851.225,-369.629,-180.664,-486.328,403.320
1613613851.229,-996.582,-1000.000,637.695,-920.410
1613613851.232,544.434,465.332,47.363,-418.945
1613613851.236,-759.766,-775.879,-1000.000,-1000.000
1613613851.240,487.793,587.891,-814.453,-396.484
1613613851.244,-890.137,-895.020,485.352,-965.332
1613613851.248,188.965,-137.695,517.090,381.348
1613613851.235,-788.086,-838.867,-849.609,-1000.000
1613613851.239,838.867,872.559,-1000.000,-888.184
1613613851.243,-698.730,-704.590,283.203,740.723
1613613851.247,-580.078,-856.934,720.703,948.242
1613613851.251,-959.961,859.375,-669.434,-791.016
1613613851.255,966.309,-937.012,-1000.000,-1000.000
1613613851.259,-640.625,-561.035,-194.336,685.059
1613613851.262,-974.121,-1000.000,707.520,987.793
1613613851.266,646.973,575.195,-350.586,-647.461
1613613851.270,-779.785,-769.531,-1000.000,-1000.000
1613613851.274,-146.484,66.895,-629.395,255.371
1613613851.278,-954.102,-994.141,543.457,-873.047
1613613851.294,524.902,338.379,204.590,-264.160
1613613851.298,-771.973,-780.762,-992.188,-1000.000
1613613851.302,609.375,713.867,-930.176,-599.609
1613613851.306,-844.727,-817.871,391.602,956.055
1613613851.310,52.246,-307.129,508.301,577.148
1613613851.314,-790.527,-867.676,-814.453,-1000.000
1613613851.318,852.539,889.160,-1000.000,-970.703
1613613851.321,-702.637,-692.871,4.395,654.297
1613613851.325,-770.020,-935.547,708.984,-984.863
1613613851.329,922.363,744.629,-558.105,-691.406
1613613851.333,-931.641,-854.492,-1000.000,-1000.000
1613613851.337,-511.719,-429.688,-361.328,602.539
1613613851.340,-1000.000,-1000.000,655.762,983.398
1613613851.344,562.012,555.176,-170.898,-625.488
1613613851.348,-752.441,-765.137,-1000.000,-1000.000
1613613851.352,178.711,370.117,-739.746,-43.945
1613613851.356,-917.969,-944.336,538.574,-887.207
1613613851.360,400.391,181.641,391.602,22.461
1613613851.364,-775.879,-791.504,-920.410,-1000.000
1613613851.367,725.586,809.082,-1000.000,-754.395
1613613851.371,-781.250,-742.188,341.309,856.934
1613613851.375,-210.938,-666.016,671.387,784.180
1613613851.379,-838.379,-998.535,-744.629,-932.129
1613613851.383,877.930,956.543,-1000.000,-1000.000
1613613851.385,-697.266,-675.781,-26.855,670.898
1613613851.389,-890.625,-999.512,728.516,-996.582
1613613851.393,797.852,636.719,-509.277,-677.246
1613613851.397,-867.676,-808.594,-1000.000,-1000.000
1613613851.401,-441.406,-291.504,-467.773,474.121
1613613851.405,-1000.000,-1000.000,627.930,-915.039
1613613851.409,552.246,506.348,20.020,-430.664
1613613851.412,-755.859,-774.414,-1000.000,-1000.000
1613613851.416,361.328,513.184,-750.000,-239.258
1613613851.420,-910.156,-925.781,517.578,-917.480
1613613851.424,276.855,-46.387,463.379,241.211
1613613851.428,-792.969,-824.707,-851.074,-1000.000
1613613851.431,822.754,859.375,-1000.000,-877.441
1613613851.435,-708.496,-709.961,223.145,746.582
1613613851.439,-516.113,-821.777,701.660,892.090
1613613851.443,-931.152,894.043,-668.457,-854.980
1613613851.447,935.059,-962.891,-1000.000,-1000.000
1613613851.451,-674.805,-594.727,-142.090,681.641
1613613851.455,-956.543,-1000.000,723.145,988.281
1613613851.458,672.852,582.031,-386.719,-648.438
1613613851.462,-789.551,-770.508,-1000.000,-1000.000
1613613851.466,-184.082,2.441,-608.398,273.926
1613613851.470,-961.914,-985.352,563.477,-887.695
1613613851.474,526.855,395.508,191.895,-308.105
1613613851.474,-765.137,-780.762,-997.559,-1000.000
1613613851.478,569.336,677.734,-915.039,-595.215
1613613851.482,-861.328,-847.168,434.082,958.984
1613613851.486,99.609,-311.035,591.797,492.676
1613613851.490,-791.992,-877.441,-804.199,-1000.000
1613613851.494,850.586,894.043,-1000.000,-955.566
1613613851.498,-701.172,-700.684,77.637,650.879
1613613851.501,-761.719,-908.203,741.211,-993.164
1613613851.505,937.988,784.180,-592.773,-707.520
1613613851.509,-951.660,-879.395,-1000.000,-1000.000
1613613851.513,-546.387,-472.656,-297.363,611.816
1613613851.517,-1000.000,-1000.000,673.828,985.840
1613613851.519,570.801,562.012,-255.859,-628.418
1613613851.523,-755.371,-764.648,-1000.000,-1000.000
1613613851.527,41.504,255.859,-665.527,44.922
1613613851.531,-934.570,-969.727,557.129,-896.484
1613613851.535,458.496,239.258,289.551,-186.035
1613613851.539,-777.344,-790.039,-963.867,-1000.000
1613613851.543,679.688,775.391,-931.641,-687.012
1613613851.546,-826.172,-776.855,440.918,885.742
1613613851.550,-160.645,-598.633,646.973,767.090
1613613851.554,-829.590,-968.262,-756.348,-937.500
1613613851.558,875.000,936.035,-1000.000,-1000.000
1613613851.562,-706.543,-694.824,-38.086,669.922
1613613851.564,-832.520,-978.027,695.801,-996.094
1613613851.568,855.469,669.434,-558.594,-674.805
1613613851.572,-886.230,-819.824,-1000.000,-1000.000
1613613851.576,-449.707,-332.031,-441.406,492.188
1613613851.580,-1000.000,-997.070,626.465,-960.938
1613613851.584,555.176,532.715,-44.922,-525.879
1613613851.588,-752.930,-769.531,-1000.000,-1000.000
1613613851.591,287.109,468.750,-790.527,-184.082
1613613851.595,-929.199,-930.176,491.211,-912.109
1613613851.599,309.082,55.664,447.266,149.414
1613613851.603,-785.645,-807.617,-870.605,-1000.000
1613613851.607,791.016,844.727,-1000.000,-808.105
1613613851.611,-733.887,-715.332,276.855,805.664
1613613851.615,-381.836,-773.926,703.125,869.141
1613613851.619,-880.371,937.988,-684.082,-864.258
1613613851.623,897.949,-997.559,-1000.000,-1000.000
1613613851.627,-699.219,-633.789,-152.344,678.711
1613613851.631,-933.594,-1000.000,723.145,995.605
1613613851.635,728.027,598.145,-407.715,-661.621
1613613851.638,-824.707,-785.645,-1000.000,-1000.000
1613613851.642,-354.004,-138.184,-552.246,366.211
1613613851.646,-996.094,-1000.000,587.402,-889.160
1613613851.650,544.434,432.129,103.516,-348.145
1613613851.654,-761.719,-773.438,-1000.000,-1000.000
1613613851.669,500.977,608.887,-844.727,-394.043
1613613851.673,-888.184,-887.695,494.629,-957.520
1613613851.677,172.852,-137.207,406.738,259.766
1613613851.681,-791.016,-829.590,-886.719,-1000.000
1613613851.685,843.262,869.629,-1000.000,-911.621
1613613851.689,-698.242,-694.824,192.383,672.852
1613613851.693,-665.039,-889.648,727.051,961.914
1613613851.696,997.070,822.266,-654.785,-791.992
1613613851.700,993.652,-916.016,-1000.000,-1000.000
1613613851.704,-613.770,-536.621,-241.699,686.523
1613613851.708,-1000.000,-1000.000,678.711,979.492
1613613851.712,592.285,567.383,-315.430,-635.742
1613613851.714,-762.207,-764.160,-1000.000,-1000.000
1613613851.718,-31.250,170.898,-650.391,119.141
1613613851.722,-922.363,-976.074,538.086,-882.812
1613613851.726,510.742,301.270,222.656,-198.730
1613613851.730,-774.414,-787.109,-979.492,-1000.000
1613613851.734,648.926,751.953,-947.266,-682.617
1613613851.738,-818.848,-790.527,394.043,902.832
1613613851.741,-7.324,-475.098,626.465,693.359
1613613851.745,-799.805,-922.363,-770.020,-992.188
1613613851.749,857.422,913.574,-1000.000,-985.840
1613613851.753,-697.266,-699.707,-14.648,663.086
1613613851.757,-823.730,-955.566,698.242,-989.746
1613613851.759,877.441,713.379,-578.125,-688.477
1613613851.763,-914.551,-843.750,-1000.000,-1000.000
1613613851.767,-503.906,-409.668,-392.090,560.547
1613613851.771,-1000.000,-1000.000,650.879,-961.914
1613613851.775,563.965,556.152,-103.516,-532.715
1613613851.779,-755.859,-770.996,-1000.000,-1000.000
1613613851.783,166.992,371.094,-753.418,-97.168
1613613851.786,-948.242,-966.797,529.785,-899.902
1613613851.790,360.840,101.562,510.742,28.809
1613613851.794,-783.203,-803.711,-859.375,-1000.000
1613613851.798,742.676,819.824,-1000.000,-783.203
1613613851.802,-790.039,-742.676,291.504,817.383
1613613851.804,-354.980,-742.188,669.434,837.402
1613613851.808,-878.418,961.426,-710.449,-892.090
1613613851.812,897.461,976.562,-1000.000,-1000.000
1613613851.816,-706.543,-670.410,-77.637,676.270
1613613851.820,-898.926,-1000.000,736.328,995.605
1613613851.824,770.996,615.234,-466.309,-660.156
1613613851.828,-839.844,-791.016,-1000.000,-1000.000
1613613851.831,-372.559,-196.777,-458.008,378.906
1613613851.835,-997.070,-994.629,642.090,-919.434
1613613851.839,544.922,482.910,-7.812,-417.480
1613613851.843,-759.277,-776.367,-1000.000,-1000.000
1613613851.847,477.539,581.055,-807.617,-390.625
1613613851.851,-890.625,-896.484,487.305,-968.750
1613613851.855,198.242,-120.605,521.973,293.457
1613613851.859,-789.551,-834.961,-828.613,-1000.000
1613613851.863,838.867,868.652,-1000.000,-874.512
1613613851.867,-697.754,-705.566,139.648,733.887
1613613851.871,-583.008,-858.398,680.664,950.195
1613613851.875,-952.148,864.746,-654.297,-791.016
1613613851.878,940.918,-951.172,-1000.000,-1000.000
1613613851.882,-677.734,-587.891,-213.867,685.059
1613613851.886,-977.539,-1000.000,694.824,987.793
1613613851.890,649.902,580.566,-329.590,-647.461
1613613851.894,-790.527,-775.879,-1000.000,-1000.000
1613613851.894,-218.750,10.254,-612.305,256.348
1613613851.898,-969.238,-1000.000,574.707,-875.488
1613613851.902,533.203,337.891,232.910,-270.508
1613613851.906,-775.879,-784.668,-980.469,-1000.000
1613613851.910,603.516,708.984,-926.758,-618.652
1613613851.914,-851.562,-827.637,417.480,944.824
1613613851.918,53.711,-354.492,597.656,491.699
1613613851.921,-791.016,-885.742,-775.879,-1000.000
1613613851.925,852.539,898.926,-1000.000,-954.590
1613613851.929,-703.613,-701.172,8.789,651.855
1613613851.933,-761.230,-917.969,682.129,-998.047
1613613851.937,932.617,766.602,-612.305,-710.938
1613613851.940,-940.918,-864.258,-1000.000,-1000.000
1613613851.944,-526.367,-443.359,-343.262,601.074
1613613851.948,-1000.000,-1000.000,662.598,986.816
1613613851.952,569.336,561.035,-209.473,-631.348
1613613851.956,-756.348,-767.578,-1000.000,-1000.000
1613613851.960,69.336,289.062,-687.988,24.414
1613613851.964,-956.055,-982.910,577.637,-868.164
1613613851.967,415.039,180.664,385.742,13.672
1613613851.971,-775.391,-793.457,-929.199,-1000.000
1613613851.975,696.289,796.387,-976.074,-749.023
1613613851.979,-810.547,-759.766,382.812,862.793
1613613851.983,-173.340,-646.973,641.602,782.715
1613613851.984,-831.543,-990.234,-751.465,-932.129
1613613851.988,874.512,951.660,-1000.000,-1000.000
1613613851.992,-707.031,-683.594,-39.551,680.176
1613613851.996,-869.141,-989.746,701.660,993.164
1613613852.000,810.547,643.555,-541.992,-678.223
1613613852.004,933.594,-868.652,-1000.000,-948.730
1613613852.008,-516.113,-314.941,-423.340,556.152
1613613852.011,-969.727,-993.652,617.188,-966.309
1613613852.015,536.133,507.324,-31.250,-441.406
1613613852.019,-749.023,-771.484,-1000.000,-1000.000
1613613852.023,353.516,509.766,-800.781,-285.645
1613613852.027,-906.738,-924.805,491.211,-935.059
1613613852.032,289.551,-25.879,468.262,249.023
1613613852.036,-785.156,-814.453,-859.863,-1000.000
1613613852.040,805.664,848.633,-1000.000,-862.793
1613613852.044,-718.750,-708.496,178.223,753.906
1613613852.048,-415.527,-723.633,583.008,784.668
1613613852.052,-891.113,933.594,-700.684,-895.020
1613613852.056,900.391,-994.141,-1000.000,-1000.000
1613613852.059,-693.359,-611.816,-194.824,671.387
1613613852.063,-964.355,-1000.000,724.609,996.094
1613613852.067,686.523,586.914,-294.434,-658.691
1613613852.071,-809.082,-780.273,-1000.000,-1000.000
1613613852.075,-312.500,-79.590,-597.168,337.402
1613613852.090,-988.770,-1000.000,584.961,-886.719
1613613852.094,547.363,400.391,187.500,-312.012
1613613852.098,-776.855,-783.203,-1000.000,-1000.000
1613613852.102,558.594,667.480,-900.391,-594.727
1613613852.106,-767.578,-845.215,486.328,958.984
1613613852.110,148.926,-279.785,633.789,487.305
1613613852.114,-808.594,-872.070,-797.852,-1000.000
1613613852.117,857.910,892.578,-1000.000,-959.961
1613613852.121,-703.125,-702.148,84.961,665.527
1613613852.125,-762.207,-893.066,700.195,953.125
1613613852.129,939.453,802.734,-633.301,-774.414
1613613852.133,-954.590,-887.695,-1000.000,-1000.000
1613613852.134,-552.246,-483.398,-250.977,599.609
1613613852.138,-1000.000,-1000.000,687.988,985.840
1613613852.142,582.520,574.219,-293.457,-638.184
1613613852.146,-768.555,-776.367,-1000.000,-1000.000
1613613852.150,15.137,224.609,-689.453,46.387
1613613852.154,-749.023,-788.574,465.820,907.227
1613613852.158,531.250,310.059,309.082,-261.230
1613613852.161,-806.152,-819.824,-932.129,-1000.000
1613613852.165,667.480,770.996,-930.176,-703.613
1613613852.169,-858.398,-806.152,404.297,895.020
1613613852.173,-154.297,-579.590,614.258,744.629
1613613852.177,-831.543,-962.891,-755.859,-954.590
1613613852.180,875.488,931.152,-1000.000,-996.582
1613613852.184,-711.426,-701.660,-28.809,673.828
1613613852.188,-827.148,-971.680,701.172,998.047
1613613852.192,856.445,673.828,-553.711,-673.340
1613613852.196,-992.676,-904.785,-1000.000,-1000.000
1613613852.200,-498.047,-384.277,-407.227,526.367
1613613852.204,-990.723,-987.305,641.113,-977.051
1613613852.207,549.316,531.250,-51.270,-517.578
1613613852.211,-752.441,-769.043,-1000.000,-1000.000
1613613852.215,264.160,444.824,-772.949,-183.105
1613613852.219,-941.895,-946.777,506.348,-912.598
1613613852.223,303.223,44.434,496.582,139.648
1613613852.224,-781.738,-810.059,-842.285,-1000.000
1613613852.228,772.461,840.820,-1000.000,-826.660
1613613852.232,-759.766,-723.633,242.188,784.180
1613613852.236,-377.441,-765.137,677.734,873.535
1613613852.240,-880.859,944.824,-707.520,-865.723
1613613852.244,897.949,995.117,-1000.000,-1000.000
1613613852.248,-699.707,-643.555,-108.398,678.711
1613613852.251,-931.152,-1000.000,740.234,995.605
1613613852.255,732.910,601.074,-435.547,-661.133
1613613852.259,-829.102,-788.574,-1000.000,-1000.000
1613613852.263,-363.770,-160.156,-526.855,370.117
1613613852.267,-996.582,-1000.000,589.844,-899.414
1613613852.271,544.434,438.477,92.773,-372.559
1613613852.275,-760.254,-776.367,-1000.000,-1000.000
1613613852.279,490.234,600.098,-843.750,-403.320
1613613852.283,-896.484,-897.949,501.465,-959.961
1613613852.287,174.805,-194.336,533.691,455.078
1613613852.291,-790.039,-852.051,-835.449,-1000.000
1613613852.295,841.797,880.371,-1000.000,-955.078
1613613852.298,-699.219,-703.125,178.711,675.781
1613613852.302,-628.418,-873.535,677.246,958.496
1613613852.306,-986.816,836.914,-657.227,-792.480
1613613852.310,987.305,-920.410,-1000.000,-1000.000
1613613852.314,-609.375,-538.574,-274.902,685.547
1613613852.315,-1000.000,-1000.000,664.551,984.863
1613613852.319,604.004,573.242,-331.055,-649.414
1613613852.323,-777.344,-770.020,-1000.000,-1000.000
1613613852.327,-145.996,98.145,-645.020,194.824
1613613852.331,-855.469,-1000.000,506.348,-964.355
1613613852.335,559.570,298.828,264.160,-237.305
1613613852.339,-791.504,-785.645,-948.730,-1000.000
1613613852.342,612.305,721.680,-962.891,-664.551
1613613852.346,-875.977,-828.125,377.930,927.246
1613613852.350,-42.969,-507.324,609.375,687.012
1613613852.354,-812.988,-938.965,-765.625,-990.234
1613613852.358,863.281,918.457,-1000.000,-985.840
1613613852.360,-697.754,-697.266,-17.578,662.598
1613613852.364,-835.938,-975.586,734.375,-987.305
1613613852.368,877.441,699.707,-531.250,-693.359
1613613852.372,-929.688,-854.492,-1000.000,-1000.000
1613613852.376,-543.457,-453.125,-395.996,584.473
1613613852.380,-1000.000,-1000.000,652.344,-963.379
1613613852.384,566.895,558.594,-130.371,-533.203
1613613852.387,-757.324,-771.484,-1000.000,-1000.000
1613613852.391,125.977,347.656,-763.184,-96.680
1613613852.395,-951.172,-970.703,512.207,-899.902
1613613852.399,386.719,127.930,388.184,28.809
1613613852.403,-786.621,-802.246,-915.527,-1000.000
1613613852.420,743.652,819.336,-1000.000,-785.156
1613613852.424,-784.180,-739.746,287.598,825.195
1613613852.428,-326.172,-717.285,638.184,800.293
1613613852.432,-869.629,975.098,-741.211,-926.758
1613613852.436,893.555,968.262,-1000.000,-1000.000
1613613852.440,-702.637,-671.875,-75.684,672.852
1613613852.444,-903.320,-1000.000,719.727,999.512
1613613852.447,779.785,620.117,-491.699,-667.480
1613613852.451,-857.910,-802.734,-1000.000,-1000.000
1613613852.455,-425.781,-258.789,-442.871,421.875
1613613852.459,-1000.000,-1000.000,635.254,-920.898
1613613852.463,550.293,484.375,20.996,-418.945
1613613852.465,-761.230,-775.879,-1000.000,-1000.000
1613613852.469,431.152,557.129,-774.902,-388.672
1613613852.473,-910.645,-910.156,511.230,-969.238
1613613852.477,207.031,-97.168,494.629,263.184
1613613852.481,-792.480,-832.520,-841.309,-1000.000
1613613852.485,839.844,867.188,-1000.000,-886.719
1613613852.489,-697.266,-704.590,172.852,714.355
1613613852.492,-584.961,-855.469,686.035,940.918
1613613852.496,-946.777,871.094,-656.738,-805.664
1613613852.500,925.293,-958.984,-1000.000,-1000.000
1613613852.504,-701.172,-600.098,-221.680,683.594
1613613852.508,-978.027,-1000.000,695.801,988.770
1613613852.510,656.250,584.961,-310.059,-649.902
1613613852.514,-799.805,-781.250,-1000.000,-1000.000
1613613852.518,-278.320,-31.250,-621.094,268.066
1613613852.522,-981.934,-1000.000,576.660,-872.559
1613613852.526,539.062,337.402,312.012,-264.648
1613613852.530,-772.461,-784.180,-948.730,-1000.000
1613613852.534,564.453,681.641,-939.453,-605.957
1613613852.537,-884.766,-862.305,417.480,958.008
1613613852.541,62.988,-414.062,626.953,676.758
1613613852.545,-793.945,-909.668,-776.367,-986.816
1613613852.549,853.027,907.715,-1000.000,-986.816
1613613852.553,-699.707,-699.707,24.902,662.598
1613613852.555,-782.227,-940.918,698.730,-987.305
1613613852.559,928.223,749.512,-586.914,-691.406
1613613852.563,-959.961,-875.488,-1000.000,-1000.000
1613613852.567,-571.777,-481.934,-316.406,602.051
1613613852.571,-1000.000,-1000.000,686.523,985.352
1613613852.575,570.312,562.012,-180.664,-626.465
1613613852.579,-757.812,-767.578,-1000.000,-1000.000
1613613852.582,69.336,284.180,-691.406,5.859
1613613852.586,-956.055,-976.562,557.129,-899.414
1613613852.590,416.016,201.172,311.523,-133.301
1613613852.594,-777.344,-794.922,-932.129,-1000.000
1613613852.598,706.543,801.758,-997.559,-769.043
1613613852.600,-798.340,-751.953,297.852,816.895
1613613852.604,-169.922,-639.160,632.812,794.434
1613613852.608,-829.102,-983.398,-745.605,-934.570
1613613852.612,872.559,944.336,-1000.000,-1000.000
1613613852.616,-692.383,-684.082,-66.895,670.898
1613613852.620,-897.949,-1000.000,730.469,-996.094
1613613852.624,804.688,645.508,-482.422,-677.246
1613613852.627,-889.160,-825.684,-1000.000,-1000.000
1613613852.631,-491.699,-379.395,-395.508,473.633
1613613852.635,-1000.000,-1000.000,639.160,-907.227
1613613852.639,565.918,518.555,-10.742,-439.941
1613613852.643,-759.766,-777.832,-1000.000,-1000.000
1613613852.645,159.668,353.027,-715.820,-93.750
1613613852.649,-989.258,-996.582,537.598,-867.676
1613613852.653,300.781,-28.809,482.910,218.262
1613613852.657,-799.316,-837.402,-838.867,-1000.000
1613613852.661,797.363,856.445,-1000.000,-873.535
1613613852.665,-748.047,-719.727,197.266,758.301
1613613852.669,-505.371,-822.754,697.754,878.418
1613613852.672,-924.316,899.902,-650.879,-867.188
1613613852.676,915.527,-980.957,-1000.000,-1000.000
1613613852.680,-701.172,-625.000,-188.477,680.664
1613613852.684,-960.938,-1000.000,700.684,989.258
1613613852.688,685.059,586.426,-383.789,-649.902
1613613852.693,-807.617,-778.809,-1000.000,-1000.000
1613613852.697,-302.734,-82.520,-600.098,282.227
1613613852.701,-991.699,-1000.000,570.801,-882.324
1613613852.705,547.363,416.992,123.047,-314.941
1613613852.709,-771.973,-784.180,-1000.000,-1000.000
1613613852.713,454.590,562.012,-775.391,-495.117
1613613852.717,-907.715,-895.020,534.180,993.164
1613613852.720,122.559,-267.090,555.176,471.191
1613613852.724,-801.270,-879.395,-808.105,-1000.000
1613613852.728,853.516,893.555,-1000.000,-958.984
1613613852.732,-699.219,-696.777,65.430,653.320
1613613852.736,-768.555,-915.527,687.988,996.582
1613613852.735,954.590,796.875,-625.000,-745.605
1613613852.739,-997.070,-912.598,-1000.000,-1000.000
1613613852.743,-629.395,-543.945,-272.949,687.500
1613613852.747,-1000.000,-1000.000,675.781,982.422
1613613852.751,587.402,574.707,-242.188,-638.672
1613613852.755,-773.926,-774.902,-1000.000,-1000.000
1613613852.759,-135.254,114.258,-619.141,146.484
1613613852.762,-992.676,-1000.000,553.223,-875.977
1613613852.766,469.727,245.605,272.461,-198.242
1613613852.770,-782.715,-795.410,-939.941,-1000.000
1613613852.774,652.832,759.277,-990.234,-689.453
1613613852.778,-854.492,-799.316,319.824,888.672
1613613852.794,-153.809,-588.867,615.723,748.047
1613613852.798,-826.172,-959.473,-760.254,-957.520
1613613852.802,869.141,922.852,-1000.000,-990.723
1613613852.806,-703.125,-698.242,-51.758,666.992
1613613852.810,-736.816,-886.719,624.023,904.785
1613613852.814,898.438,704.590,-519.043,-708.984
1613613852.818,-924.805,-849.609,-1000.000,-1000.000
1613613852.821,-493.164,-381.348,-431.641,484.375
1613613852.825,-1000.000,-1000.000,654.297,-958.496
1613613852.829,559.082,536.621,27.832,-524.414
1613613852.833,-756.836,-770.996,-1000.000,-1000.000
1613613852.837,264.160,445.312,-801.270,-177.246
1613613852.840,-943.359,-941.406,510.742,-921.875
1613613852.844,300.293,65.430,446.289,37.598
1613613852.848,-778.809,-806.641,-875.000,-1000.000
1613613852.852,764.648,836.914,-1000.000,-817.383
1613613852.856,-770.020,-723.633,251.465,770.508
1613613852.860,-375.488,-770.996,687.500,876.953
1613613852.864,-881.348,943.848,-696.777,-865.723
1613613852.867,896.973,989.746,-1000.000,-1000.000
1613613852.871,-696.289,-653.320,-101.562,678.711
1613613852.875,-943.359,-1000.000,745.605,995.605
1613613852.879,728.027,604.004,-411.621,-661.621
1613613852.883,-837.891,-794.434,-1000.000,-1000.000
1613613852.884,-397.461,-196.289,-473.145,368.164
1613613852.888,-999.023,-1000.000,623.047,-894.531
1613613852.892,548.340,436.035,61.035,-361.328
1613613852.896,-761.719,-778.320,-1000.000,-1000.000
1613613852.900,454.102,584.961,-863.281,-403.809
1613613852.904,-912.598,-913.086,477.051,-959.961
1613613852.908,180.664,-227.539,547.852,457.031
1613613852.911,-795.898,-863.281,-817.383,-1000.000
1613613852.915,845.215,880.859,-1000.000,-935.059
1613613852.919,-697.266,-705.078,67.383,701.660
1613613852.923,-702.148,-897.949,663.574,954.102
1613613852.927,994.141,822.754,-637.695,-791.992
1613613852.931,962.891,-936.035,-1000.000,-1000.000
1613613852.935,-666.992,-579.102,-246.582,685.547
1613613852.939,-1000.000,-1000.000,700.684,983.887
1613613852.943,587.402,575.195,-261.719,-642.090
1613613852.947,-771.973,-771.973,-1000.000,-1000.000
1613613852.951,-157.227,79.102,-650.391,188.477
1613613852.955,-957.031,-1000.000,557.129,-878.418
1613613852.958,527.832,311.523,252.441,-231.445
1613613852.962,-781.250,-790.527,-959.473,-1000.000
1613613852.966,635.254,740.723,-973.145,-689.453
1613613852.970,-840.332,-806.152,349.609,895.996
1613613852.974,-29.297,-476.074,610.840,694.824
1613613852.975,-806.641,-924.316,-772.949,-992.676
1613613852.979,860.352,912.598,-1000.000,-985.352
1613613852.983,-694.824,-694.824,-12.695,662.598
1613613852.987,-844.238,-973.633,707.031,-987.793
1613613852.991,877.930,707.520,-576.172,-693.359
1613613852.995,-941.895,-863.770,-1000.000,-1000.000
1613613852.999,-568.359,-468.262,-353.516,583.496
1613613853.002,-1000.000,-1000.000,686.035,-959.473
1613613853.006,573.242,552.246,-124.023,-539.062
1613613853.010,-763.672,-772.949,-1000.000,-1000.000
1613613853.014,61.035,294.434,-731.934,-23.926
1613613853.018,-989.746,-1000.000,511.719,-879.395
1613613853.019,364.746,104.004,378.418,18.555
1613613853.023,-782.227,-807.617,-911.133,-1000.000
1613613853.027,710.938,808.105,-1000.000,-785.645
1613613853.031,-829.102,-759.766,334.961,820.801
1613613853.035,-352.539,-739.746,653.320,823.730
1613613853.039,-881.348,962.402,-721.680,-904.785
1613613853.043,898.438,970.215,-1000.000,-1000.000
1613613853.046,-705.078,-677.734,-82.520,674.805
1613613853.050,-904.297,-1000.000,712.891,998.535
1613613853.054,782.715,619.141,-480.957,-666.016
1613613853.058,-863.770,-804.199,-1000.000,-1000.000
1613613853.062,-442.383,-263.672,-520.996,411.621
1613613853.065,-1000.000,-1000.000,583.496,-920.410
1613613853.069,553.223,479.004,29.785,-418.457
1613613853.073,-762.207,-777.344,-1000.000,-1000.000
1613613853.077,399.902,551.270,-839.844,-390.625
1613613853.081,-930.664,-921.387,474.609,-968.750
1613613853.085,199.219,-133.301,534.668,295.410
1613613853.089,-791.016,-841.309,-822.754,-1000.000
1613613853.092,828.125,869.141,-1000.000,-874.512
1613613853.096,-714.844,-708.984,120.605,734.375
1613613853.100,-582.031,-861.328,679.688,950.195
1613613853.104,-947.266,867.188,-654.297,-791.016
1613613853.108,924.316,-960.938,-1000.000,-1000.000
1613613853.111,-699.219,-607.910,-199.219,685.059
1613613853.115,-984.375,-1000.000,726.562,987.793
1613613853.119,642.090,583.008,-223.633,-646.484
1613613853.123,-793.457,-778.809,-1000.000,-1000.000
1613613853.127,-248.535,-10.742,-650.879,262.207
1613613853.131,-975.586,-1000.000,574.219,-888.184
1613613853.135,535.645,342.773,213.867,-308.105
1613613853.138,-771.973,-784.180,-998.535,-1000.000
1613613853.142,574.219,689.453,-931.152,-602.051
1613613853.146,-876.953,-853.027,402.832,956.055
1613613853.150,60.547,-403.809,576.660,654.785
1613613853.154,-793.457,-904.785,-796.387,-996.094
1613613853.169,852.539,905.273,-1000.000,-982.910
1613613853.173,-698.242,-698.242,43.457,660.645
1613613853.177,-789.551,-943.848,708.496,-986.816
1613613853.181,923.828,746.582,-591.309,-691.406
1613613853.185,-960.938,-875.977,-1000.000,-1000.000
1613613853.189,-577.148,-484.863,-235.352,602.051
1613613853.193,-1000.000,-1000.000,714.844,986.328
1613613853.196,572.754,563.477,-224.609,-629.395
1613613853.200,-760.254,-769.043,-1000.000,-1000.000
1613613853.204,44.922,275.391,-728.516,17.578
1613613853.208,-962.891,-985.352,508.301,-878.906
1613613853.212,417.969,187.988,341.309,-36.621
1613613853.214,-776.855,-793.457,-914.062,-1000.000
1613613853.218,681.152,786.621,-1000.000,-739.258
1613613853.222,-841.797,-770.020,295.898,862.305
1613613853.226,-256.836,-687.988,638.184,783.203
1613613853.230,-857.422,991.211,-739.746,-931.641
1613613853.234,885.742,948.730,-1000.000,-1000.000
1613613853.238,-697.266,-693.848,-69.824,670.898
1613613853.241,-907.715,-1000.000,727.051,-996.094
1613613853.245,794.922,638.184,-459.961,-677.246
1613613853.249,-888.184,-823.242,-1000.000,-1000.000
1613613853.253,-497.559,-354.980,-486.816,475.586
1613613853.257,-1000.000,-1000.000,601.074,-919.922
1613613853.259,558.105,508.789,20.996,-431.152
1613613853.263,-757.324,-774.414,-1000.000,-1000.000
1613613853.267,287.109,473.145,-831.055,-297.363
1613613853.271,-946.777,-951.172,486.328,-937.500
1613613853.275,278.809,-41.016,519.531,250.000
1613613853.279,-792.969,-827.148,-839.844,-1000.000
1613613853.283,803.223,857.422,-1000.000,-876.953
1613613853.286,-739.258,-712.891,181.641,749.023
1613613853.290,-535.156,-828.125,708.496,880.371
1613613853.294,-933.594,896.973,-664.062,-867.676
1613613853.298,919.922,-979.492,-1000.000,-1000.000
1613613853.302,-702.637,-624.023,-169.434,679.688
1613613853.305,-963.379,-1000.000,726.074,991.211
1613613853.309,689.941,590.820,-357.910,-654.297
1613613853.313,-813.477,-785.645,-1000.000,-1000.000
1613613853.317,-347.168,-110.840,-582.520,310.059
1613613853.321,-996.582,-1000.000,588.867,-885.254
1613613853.325,545.898,384.766,162.598,-312.012
1613613853.329,-766.602,-780.762,-1000.000,-1000.000
1613613853.332,505.859,627.441,-858.887,-559.570
1613613853.336,-923.828,-896.973,488.281,974.609
1613613853.340,88.867,-342.773,539.551,493.164
1613613853.344,-797.852,-893.555,-804.199,-1000.000
1613613853.348,853.027,898.438,-1000.000,-957.031
1613613853.351,-700.684,-700.684,27.832,648.438
1613613853.355,-769.043,-928.223,689.941,-981.934
1613613853.359,956.055,782.715,-605.469,-715.820
1613613853.363,999.023,-911.133,-1000.000,-1000.000
1613613853.367,-635.254,-548.340,-341.797,685.547
1613613853.371,-1000.000,-1000.000,656.738,977.539
1613613853.375,586.914,572.754,-210.449,-629.883
1613613853.378,-774.414,-773.926,-1000.000,-1000.000
1613613853.382,-122.559,148.926,-707.031,60.547
1613613853.386,-1000.000,-1000.000,514.648,-883.789
1613613853.390,463.379,240.234,297.852,-197.754
1613613853.394,-781.250,-795.410,-939.941,-1000.000
1613613853.394,547.363,658.691,-918.945,-491.211
1613613853.398,-894.043,-835.449,362.305,961.426
1613613853.402,-136.230,-595.215,643.555,730.957
1613613853.406,-839.844,-981.934,-722.656,-923.340
1613613853.410,876.953,935.059,-1000.000,-1000.000
1613613853.414,-701.172,-700.195,-48.340,669.922
1613613853.418,-856.445,-991.211,737.793,-996.094
1613613853.421,843.262,660.156,-438.965,-674.805
1613613853.425,-898.438,-826.660,-1000.000,-1000.000
1613613853.429,-489.258,-372.559,-469.238,492.188
1613613853.433,-1000.000,-1000.000,612.793,-960.938
1613613853.437,560.547,534.668,-88.867,-525.879
1613613853.440,-757.324,-772.461,-1000.000,-1000.000
1613613853.444,234.375,431.641,-787.109,-185.547
1613613853.448,-953.613,-958.496,508.789,-910.645
1613613853.452,303.711,27.832,455.566,171.875
1613613853.456,-774.902,-805.664,-885.742,-1000.000
1613613853.460,745.117,823.730,-1000.000,-792.480
1613613853.464,-789.551,-732.910,297.852,819.336
1613613853.467,-336.426,-704.102,595.703,766.113
1613613853.471,-870.605,956.055,-730.469,-897.949
1613613853.475,889.648,972.656,-1000.000,-1000.000
1613613853.479,-689.453,-660.645,-122.559,670.410
1613613853.483,-959.473,-1000.000,711.426,998.047
1613613853.484,713.379,601.074,-428.223,-660.645
1613613853.488,-835.938,-794.434,-1000.000,-1000.000
1613613853.492,-402.344,-194.824,-559.570,374.023
1613613853.496,-997.559,-1000.000,562.012,-912.598
1613613853.500,546.875,437.500,76.172,-383.301
1613613853.504,-762.695,-779.785,-1000.000,-1000.000
1613613853.508,490.234,604.980,-865.234,-537.109
1613613853.511,-896.484,-898.438,448.242,980.469
1613613853.515,174.316,-217.773,520.508,477.539
1613613853.519,-793.457,-857.910,-822.266,-1000.000
1613613853.523,845.215,881.348,-1000.000,-960.938
1613613853.527,-696.777,-700.684,95.215,664.062
1613613853.532,-713.379,-897.461,686.035,960.449
1613613853.536,984.863,820.312,-629.395,-797.852
1613613853.540,977.539,-928.711,-1000.000,-1000.000
1613613853.544,-647.949,-564.453,-286.133,683.594
1613613853.548,-1000.000,-1000.000,613.770,886.719
1613613853.552,591.309,578.613,-229.004,-680.664
1613613853.556,-778.320,-777.344,-1000.000,-1000.000
1613613853.559,-187.012,55.664,-695.801,214.355
1613613853.563,-980.469,-1000.000,548.828,-856.934
1613613853.567,505.859,272.949,366.699,-207.031
1613613853.571,-775.879,-787.598,-922.363,-1000.000
1613613853.575,595.215,713.867,-990.723,-666.504
1613613853.590,-894.531,-843.262,353.516,916.992
1613613853.594,-92.285,-534.668,622.559,689.453
1613613853.598,-825.195,-950.684,-762.207,-990.723
1613613853.602,869.629,922.852,-1000.000,-985.840
1613613853.606,-700.195,-698.730,0.488,663.086
1613613853.610,-841.309,-978.027,745.117,-990.234
1613613853.614,873.047,695.312,-554.199,-687.500
1613613853.617,-929.688,-852.539,-1000.000,-1000.000
1613613853.621,-545.410,-449.219,-374.512,554.199
1613613853.625,-1000.000,-1000.000,651.855,-963.867
1613613853.629,571.289,556.641,-146.484,-528.809
1613613853.633,-762.207,-773.438,-1000.000,-1000.000
1613613853.634,82.520,332.031,-733.887,-140.625
1613613853.638,-995.117,-994.141,505.371,-906.738
1613613853.642,357.910,97.656,368.652,28.320
1613613853.646,-781.738,-808.105,-905.762,-1000.000
1613613853.650,608.887,708.496,-964.844,-682.129
1613613853.654,-867.676,-792.480,342.773,848.145
1613613853.658,-346.191,-745.605,680.176,838.379
1613613853.661,-892.090,944.336,-709.473,-868.652
1613613853.665,900.879,971.680,-1000.000,-1000.000
1613613853.669,-700.195,-685.059,-99.609,677.246
1613613853.673,-926.758,-1000.000,707.520,997.070
1613613853.677,758.789,614.746,-439.941,-663.574
1613613853.679,-859.375,-807.129,-1000.000,-1000.000
1613613853.683,-445.801,-279.785,-511.230,398.438
1613613853.687,-1000.000,-1000.000,593.750,-919.922
1613613853.691,553.223,469.727,58.594,-417.969
1613613853.695,-763.672,-778.320,-1000.000,-1000.000
1613613853.699,417.969,560.059,-840.820,-388.672
1613613853.703,-927.734,-916.992,478.027,-968.750
1613613853.706,187.012,-136.719,525.391,260.742
1613613853.710,-791.504,-841.797,-815.430,-1000.000
1613613853.714,835.449,871.094,-1000.000,-908.203
1613613853.718,-706.055,-706.055,111.816,684.082
1613613853.722,-583.496,-863.770,686.035,952.148
1613613853.725,-947.754,862.305,-644.531,-799.805
1613613853.729,925.293,-955.078,-1000.000,-1000.000
1613613853.733,-690.918,-597.656,-230.957,684.570
1613613853.737,-1000.000,-1000.000,696.289,987.793
1613613853.741,634.277,586.914,-335.938,-648.438
1613613853.745,-802.246,-784.668,-1000.000,-1000.000
1613613853.749,-331.055,-44.922,-617.188,250.488
1613613853.752,-993.652,-1000.000,589.844,-862.305
1613613853.756,545.410,321.289,228.516,-233.398
1613613853.760,-774.902,-784.668,-995.117,-1000.000
1613613853.764,542.969,666.992,-909.180,-607.910
1613613853.768,-913.574,-878.418,424.316,959.473
1613613853.771,16.113,-471.191,591.797,676.758
1613613853.775,-807.617,-933.594,-789.551,-986.816
1613613853.779,858.887,916.016,-1000.000,-986.816
1613613853.783,-696.289,-698.730,110.840,662.109
1613613853.787,-822.754,-961.426,712.402,-987.305
1613613853.791,903.809,729.004,-590.820,-691.406
1613613853.795,-965.332,-879.395,-1000.000,-1000.000
1613613853.798,-601.562,-500.977,-345.703,600.098
1613613853.802,-1000.000,-1000.000,641.602,990.234
1613613853.806,575.195,564.941,-195.312,-619.141
1613613853.810,-762.695,-771.484,-1000.000,-1000.000
1613613853.814,21.973,266.113,-748.047,-16.113
1613613853.815,-969.238,-996.094,496.094,-879.395
1613613853.819,421.387,168.945,359.863,19.043
1613613853.823,-780.273,-795.898,-919.922,-1000.000
1613613853.827,680.664,785.156,-1000.000,-753.906
1613613853.831,-849.609,-774.414,302.734,857.910
1613613853.835,-302.734,-707.520,657.715,784.180
1613613853.839,-870.605,980.469,-718.750,-932.129
1613613853.842,892.090,952.637,-1000.000,-1000.000
1613613853.846,-700.195,-693.359,-98.145,670.898
1613613853.850,-909.668,-1000.000,702.148,-996.582
1613613853.854,792.480,633.301,-498.535,-677.246
1613613853.858,-887.207,-822.754,-1000.000,-1000.000
1613613853.860,-496.582,-349.121,-487.305,474.609
1613613853.864,-1000.000,-1000.000,619.629,-917.480
1613613853.868,561.035,494.629,69.336,-426.758
1613613853.872,-761.719,-775.391,-1000.000,-1000.000
1613613853.876,265.137,466.309,-836.914,-294.922
1613613853.880,-972.168,-962.891,505.371,-936.523
1613613853.884,244.629,-82.031,511.230,250.000
1613613853.887,-790.039,-836.426,-851.562,-1000.000
1613613853.891,787.598,856.934,-1000.000,-875.488
1613613853.895,-769.043,-719.727,193.848,744.141
1613613853.899,-572.754,-849.609,676.758,900.391
1613613853.903,-949.219,882.812,-687.500,-846.191
1613613853.920,926.270,-980.469,-1000.000,-1000.000
1613613853.924,-705.566,-634.766,-141.113,680.664
1613613853.928,-963.867,-1000.000,712.891,991.699
1613613853.932,692.871,592.773,-367.676,-654.785
1613613853.936,-819.824,-790.039,-1000.000,-1000.000
1613613853.940,-365.234,-125.977,-568.359,314.453
1613613853.944,-997.070,-1000.000,585.938,-886.719
1613613853.947,547.363,370.117,154.297,-310.547
1613613853.951,-768.555,-782.715,-1000.000,-1000.000
1613613853.955,506.348,631.836,-861.816,-596.680
1613613853.959,-930.176,-897.949,465.332,958.496
1613613853.963,76.172,-368.652,565.430,532.227
1613613853.965,-797.852,-901.367,-795.898,-1000.000
1613613853.969,854.492,903.809,-1000.000,-961.914
1613613853.973,-701.172,-699.707,19.531,651.855
1613613853.977,-768.555,-930.664,669.922,-986.328
1613613853.981,955.078,778.320,-608.887,-707.520
1613613853.985,-997.559,-907.227,-1000.000,-1000.000
1613613853.989,-629.883,-541.504,-331.543,644.531
1613613853.992,-1000.000,-1000.000,657.227,981.445
1613613853.996,587.891,573.730,-169.434,-629.395
1613613854.000,-776.367,-775.879,-1000.000,-1000.000
1613613854.004,-129.395,142.090,-723.633,39.551
1613613854.008,-1000.000,-1000.000,511.230,-888.672
1613613854.009,439.941,214.844,344.727,-129.883
1613613854.013,-776.367,-794.434,-917.969,-1000.000
1613613854.017,641.113,758.301,-1000.000,-693.848
1613613854.021,-866.211,-804.199,314.941,887.695
1613613854.025,-151.367,-635.254,644.043,776.367
1613613854.029,-832.520,-985.352,-743.652,-929.688
1613613854.033,873.535,936.523,-1000.000,-1000.000
1613613854.036,-697.754,-701.660,-44.922,670.898
1613613854.040,-871.094,-991.699,736.328,-996.094
1613613854.044,831.543,659.668,-539.551,-674.805
1613613854.048,-897.461,-828.125,-1000.000,-1000.000
1613613854.052,-495.605,-373.535,-437.012,492.188
1613613854.054,-1000.000,-1000.000,628.418,-960.938
1613613854.058,563.965,527.344,-35.645,-526.855
1613613854.062,-758.789,-773.438,-1000.000,-1000.000
1613613854.066,188.477,418.457,-779.785,-190.918
1613613854.070,-969.727,-973.145,513.672,-905.273
1613613854.074,310.547,-8.301,469.238,232.910
1613613854.078,-783.691,-819.336,-871.582,-1000.000
1613613854.081,744.141,831.543,-1000.000,-812.012
1613613854.085,-807.617,-739.746,311.035,820.801
1613613854.089,-495.605,-818.848,672.363,865.234
1613613854.093,-926.758,908.691,-698.242,-864.258
1613613854.097,915.039,997.070,-1000.000,-1000.000
1613613854.099,-699.219,-660.645,-166.016,678.711
1613613854.103,-968.262,-1000.000,697.266,995.605
1613613854.107,699.219,597.656,-408.203,-662.109
1613613854.111,-833.496,-794.434,-1000.000,-1000.000
1613613854.115,-404.785,-185.059,-584.473,363.281
1613613854.119,-1000.000,-1000.000,573.242,-882.812
1613613854.123,555.176,421.875,147.949,-331.055
1613613854.126,-766.602,-780.762,-1000.000,-1000.000
1613613854.130,374.512,500.000,-801.758,-443.359
1613613854.134,-956.543,-946.289,488.281,-979.492
1613613854.138,167.969,-228.027,520.996,455.566
1613613854.142,-807.129,-878.906,-810.547,-1000.000
