timestamps,TP9,AF7,AF8,TP10
1612999602.152,935.547,991.699,-861.328,-708.496
1612999602.156,-595.215,-505.371,-474.609,874.512
1612999602.160,-1000.000,-1000.000,-142.090,-844.727
1612999602.164,-13.672,-194.824,-489.746,-20.020
1612999602.168,-813.477,-849.609,-869.141,-1000.000
1612999602.172,5.859,93.262,-602.051,114.746
1612999602.176,-1000.000,-1000.000,-138.184,-744.141
1612999602.179,-236.816,-356.934,-201.660,189.941
1612999602.183,-823.242,-863.281,-716.797,-1000.000
1612999602.187,244.629,250.000,-753.418,-277.832
1612999602.191,-1000.000,-1000.000,-234.375,-808.105
1612999602.195,-561.523,-823.730,-171.875,515.625
1612999602.196,-938.477,803.223,-692.383,-1000.000
1612999602.200,547.363,594.238,-837.402,-388.184
1612999602.204,-1000.000,-953.613,-299.805,-941.406
1612999602.208,-1000.000,-1000.000,-67.871,992.676
1612999602.212,438.477,93.262,-571.289,-522.949
1612999602.216,-940.918,-912.598,-879.395,-861.816
1612999602.220,-414.062,-315.918,-440.918,706.543
1612999602.223,-1000.000,-1000.000,77.148,-805.664
1612999602.227,-121.582,-213.379,-340.332,106.934
1612999602.231,-807.129,-836.914,-885.742,-1000.000
1612999602.235,200.684,208.984,-592.773,-19.043
1612999602.239,-1000.000,-1000.000,-145.996,-748.047
1612999602.241,-259.277,-418.945,-336.914,198.242
1612999602.245,-811.035,-872.559,-779.785,-1000.000
1612999602.249,240.234,278.320,-729.492,-276.855
1612999602.253,-1000.000,-1000.000,-277.344,-820.801
1612999602.257,-603.027,-915.527,-235.352,589.844
1612999602.261,-971.680,663.086,-672.363,-1000.000
1612999602.265,629.883,723.145,-760.254,-485.352
1612999602.268,-923.828,-850.098,-322.266,990.234
1612999602.272,-1000.000,-1000.000,-189.941,-905.762
1612999602.276,221.191,-3.418,-572.266,-312.500
1612999602.280,-824.707,-854.004,-861.328,-998.535
1612999602.284,-165.527,-147.949,-520.508,525.391
1612999602.288,-1000.000,-1000.000,-143.066,-775.391
1612999602.292,-226.562,-223.633,-396.973,171.387
1612999602.296,-813.477,-824.219,-801.758,-1000.000
1612999602.300,215.332,226.562,-664.551,-100.098
1612999602.304,-1000.000,-1000.000,-241.699,-812.988
1612999602.308,-178.223,-437.500,-221.680,208.008
1612999602.312,-819.336,-925.293,-660.645,-1000.000
1612999602.315,332.031,370.117,-765.137,-281.250
1612999602.319,-1000.000,-1000.000,-285.645,-854.980
1612999602.323,-766.113,-1000.000,-130.859,753.906
1612999602.327,857.422,440.430,-580.078,-893.555
1612999602.331,791.016,869.141,-840.332,-602.539
1612999602.347,-769.531,-687.500,-415.039,933.594
1612999602.351,-1000.000,-1000.000,-106.934,-864.746
1612999602.355,106.445,-119.141,-469.238,-151.367
1612999602.359,-798.828,-841.797,-849.609,-1000.000
1612999602.363,-7.324,5.859,-589.844,357.910
1612999602.367,-1000.000,-1000.000,11.719,-755.371
1612999602.371,-238.770,-232.910,-120.605,177.246
1612999602.374,-815.918,-824.219,-819.336,-1000.000
1612999602.378,238.281,243.652,-700.195,-212.891
1612999602.382,-1000.000,-1000.000,-176.270,-779.297
1612999602.386,-369.629,-599.121,-235.352,406.738
1612999602.390,-845.703,-961.914,-740.234,-1000.000
1612999602.391,442.871,482.910,-765.137,-285.156
1612999602.395,-1000.000,-1000.000,-285.156,-881.348
1612999602.399,-808.594,-1000.000,-173.340,876.465
1612999602.403,820.312,367.676,-618.164,-720.703
1612999602.407,877.930,895.996,-774.414,-707.520
1612999602.411,-712.891,-699.219,-323.242,871.582
1612999602.415,-1000.000,-1000.000,-57.129,-838.867
1612999602.418,62.988,-163.574,-428.223,-15.137
1612999602.422,-792.969,-844.238,-821.289,-1000.000
1612999602.426,99.121,118.652,-441.895,163.574
1612999602.430,-1000.000,-1000.000,-117.676,-739.746
1612999602.434,-250.977,-331.055,-369.141,185.059
1612999602.436,-814.941,-849.121,-780.762,-1000.000
1612999602.440,243.164,248.047,-707.031,-280.273
1612999602.444,-1000.000,-1000.000,-257.324,-803.711
1612999602.448,-509.766,-775.391,-251.465,522.461
1612999602.452,-987.305,779.297,-677.734,-1000.000
1612999602.456,519.043,544.922,-767.090,-297.363
1612999602.460,-996.582,-942.383,-314.941,-937.988
1612999602.463,-922.363,-1000.000,-107.910,963.867
1612999602.467,578.125,221.191,-478.516,-562.988
1612999602.471,-857.910,-869.141,-796.387,-854.980
1612999602.475,-241.699,-257.324,-519.531,716.309
1612999602.479,-1000.000,-1000.000,-137.207,-806.152
1612999602.482,-34.668,-213.867,-398.926,53.711
1612999602.486,-780.762,-831.055,-833.008,-1000.000
1612999602.490,209.473,216.797,-648.926,54.688
1612999602.494,-1000.000,-1000.000,-168.457,-742.676
1612999602.498,-264.160,-387.207,-231.934,192.383
1612999602.502,-808.594,-856.934,-739.258,-1000.000
1612999602.506,239.746,269.531,-733.887,-277.832
1612999602.509,-1000.000,-1000.000,-169.434,-824.219
1612999602.513,-569.824,-902.344,-0.488,615.234
1612999602.517,-950.684,683.594,-613.281,-1000.000
1612999602.521,623.047,708.496,-843.262,-490.723
1612999602.525,-921.387,-862.305,-320.801,992.188
1612999602.527,-1000.000,-1000.000,-118.652,-905.273
1612999602.531,229.004,0.977,-579.102,-315.918
1612999602.535,-829.590,-856.445,-864.746,-987.793
1612999602.539,-182.129,-155.762,-481.934,541.992
1612999602.543,-1000.000,-1000.000,-127.930,-775.391
1612999602.547,-223.145,-221.680,-394.531,166.992
1612999602.551,-821.289,-830.566,-830.566,-1000.000
1612999602.554,233.887,244.629,-582.031,-84.961
1612999602.558,-1000.000,-1000.000,-106.934,-752.930
1612999602.562,-266.113,-495.117,-309.082,203.125
1612999602.566,-809.082,-898.926,-763.672,-1000.000
1612999602.570,338.867,367.676,-753.906,-272.949
1612999602.571,-1000.000,-1000.000,-317.383,-837.402
1612999602.575,-656.250,-1000.000,-266.113,661.133
1612999602.579,976.562,501.465,-660.645,-996.582
1612999602.583,769.531,848.145,-796.387,-584.961
1612999602.587,-766.113,-707.520,-428.223,934.082
1612999602.591,-1000.000,-1000.000,-163.574,-872.559
1612999602.595,133.301,-111.816,-465.332,-187.012
1612999602.598,-808.594,-848.633,-793.945,-1000.000
1612999602.602,-68.848,-30.273,-589.844,361.816
1612999602.606,-1000.000,-1000.000,-237.305,-758.301
1612999602.610,-232.422,-245.117,-395.996,178.711
1612999602.614,-819.824,-832.520,-816.406,-1000.000
1612999602.616,239.258,245.605,-713.379,-219.727
1612999602.620,-1000.000,-1000.000,-250.977,-780.762
1612999602.624,-369.629,-638.184,-257.324,380.371
1612999602.628,-845.703,-996.582,-729.004,-1000.000
1612999602.632,442.383,486.816,-776.367,-287.109
1612999602.636,-1000.000,-1000.000,-308.105,-861.328
1612999602.640,-794.922,-1000.000,-10.254,797.363
1612999602.643,790.039,358.887,-419.434,-824.707
1612999602.647,947.754,995.605,-867.188,-694.824
1612999602.651,-542.969,-501.953,-458.984,874.023
1612999602.655,-1000.000,-1000.000,-112.793,-846.680
1612999602.659,19.531,-179.688,-468.262,-57.129
1612999602.661,-804.688,-844.238,-872.070,-1000.000
1612999602.665,13.184,85.449,-598.145,166.992
1612999602.669,-1000.000,-1000.000,-176.758,-735.840
1612999602.673,-220.215,-291.504,-345.703,167.480
1612999602.677,-875.977,-902.344,-796.387,-1000.000
1612999602.681,153.809,159.668,-649.414,-189.941
1612999602.685,-1000.000,-1000.000,-117.188,-816.895
1612999602.688,-468.262,-741.211,-232.910,502.441
1612999602.692,-895.020,895.020,-729.492,-1000.000
1612999602.696,541.992,589.844,-734.375,-364.746
1612999602.700,-1000.000,-956.055,-277.832,-931.152
1612999602.704,-923.340,-1000.000,-209.961,977.539
1612999602.721,604.004,166.992,-599.121,-541.504
1612999602.725,-937.500,-902.832,-836.914,-857.910
1612999602.729,-371.582,-314.941,-490.234,714.355
1612999602.733,-1000.000,-1000.000,-177.734,-798.340
1612999602.737,-89.844,-194.824,-460.938,35.156
1612999602.741,-864.746,-893.555,-812.012,-1000.000
1612999602.745,43.945,108.398,-602.051,142.578
1612999602.748,-1000.000,-1000.000,-183.105,-753.906
1612999602.752,-250.000,-398.438,-296.875,192.871
1612999602.756,-817.383,-868.652,-750.488,-1000.000
1612999602.760,241.699,276.367,-747.559,-277.832
1612999602.764,-1000.000,-1000.000,-281.250,-816.406
1612999602.767,-561.035,-834.961,-216.797,556.152
1612999602.771,-949.219,767.090,-666.016,-1000.000
1612999602.775,635.254,719.238,-828.613,-473.633
1612999602.779,-953.125,-845.215,-413.574,-989.258
1612999602.783,-1000.000,-1000.000,-184.570,-962.402
1612999602.787,411.621,45.898,-545.410,-403.320
1612999602.791,-851.074,-856.445,-860.352,-977.051
1612999602.794,-224.121,-176.270,-574.219,541.504
1612999602.798,-1000.000,-1000.000,-123.535,-776.367
1612999602.802,-220.703,-221.680,-292.969,164.551
1612999602.806,-823.730,-832.520,-855.957,-1000.000
1612999602.810,233.887,243.652,-690.430,-62.988
1612999602.812,-1000.000,-1000.000,-206.543,-748.535
1612999602.816,-265.137,-518.066,-291.992,204.590
1612999602.820,-808.105,-911.133,-759.277,-1000.000
1612999602.824,310.059,325.195,-773.438,-266.602
1612999602.828,-1000.000,-1000.000,-251.465,-862.793
1612999602.832,-758.789,-1000.000,-163.574,725.586
1612999602.836,843.750,430.176,-651.367,-911.133
1612999602.839,795.898,829.590,-857.422,-602.539
1612999602.843,-771.484,-738.770,-317.871,939.941
1612999602.847,-1000.000,-1000.000,-79.102,-876.953
1612999602.851,148.438,-109.375,-593.262,-206.055
1612999602.855,-816.406,-849.609,-877.930,-1000.000
1612999602.856,-112.305,-41.016,-583.008,363.281
1612999602.860,-1000.000,-1000.000,-276.367,-761.230
1612999602.864,-228.516,-228.027,-465.332,181.152
1612999602.868,-817.383,-825.684,-821.289,-1000.000
1612999602.872,233.398,244.629,-678.223,-249.023
1612999602.876,-1000.000,-1000.000,-227.051,-788.574
1612999602.880,-270.020,-544.434,-288.574,279.785
1612999602.883,-812.012,-924.805,-718.262,-1000.000
1612999602.887,426.270,470.703,-722.168,-271.484
1612999602.891,-1000.000,-1000.000,-344.727,-859.863
1612999602.895,-801.758,-1000.000,-265.137,762.695
1612999602.899,800.781,310.547,-652.832,-873.535
1612999602.901,912.598,945.312,-857.422,-687.988
1612999602.905,-594.238,-572.754,-496.582,875.000
1612999602.909,-1000.000,-1000.000,-231.934,-849.609
1612999602.913,7.324,-188.965,-523.438,-68.848
1612999602.917,-809.570,-854.980,-865.723,-1000.000
1612999602.921,2.930,59.570,-608.887,169.922
1612999602.925,-1000.000,-1000.000,-210.938,-743.652
1612999602.928,-237.305,-333.496,-297.363,186.035
1612999602.932,-820.312,-858.398,-749.512,-1000.000
1612999602.936,242.188,251.953,-759.277,-276.367
1612999602.940,-1000.000,-1000.000,-292.969,-801.270
1612999602.944,-468.262,-753.906,-254.395,423.828
1612999602.947,-892.578,885.254,-716.309,-1000.000
1612999602.951,541.504,563.965,-824.219,-383.301
1612999602.955,-1000.000,-967.285,-371.582,-914.551
1612999602.959,-930.664,-1000.000,-225.586,883.301
1612999602.963,604.492,143.555,-619.141,-696.289
1612999602.967,-955.078,-927.246,-877.441,-845.215
1612999602.971,-421.387,-355.469,-471.191,725.098
1612999602.974,-1000.000,-1000.000,-44.434,-821.289
1612999602.978,-43.457,-211.426,-445.801,-21.484
1612999602.982,-798.340,-839.844,-900.879,-1000.000
1612999602.986,112.793,187.988,-646.484,44.434
1612999602.990,-1000.000,-1000.000,-216.309,-750.977
1612999602.993,-249.512,-410.645,-351.562,195.801
1612999602.997,-816.406,-873.535,-808.594,-1000.000
1612999603.001,242.188,257.812,-726.074,-277.344
1612999603.005,-1000.000,-1000.000,-300.293,-812.988
1612999603.009,-561.035,-874.023,-300.293,527.344
1612999603.013,-945.801,718.750,-706.055,-1000.000
1612999603.017,622.559,689.941,-771.973,-481.445
1612999603.020,-922.852,-872.070,-345.703,-993.164
1612999603.024,-1000.000,-1000.000,-257.812,-965.332
1612999603.028,248.535,0.000,-621.582,-432.129
1612999603.032,-840.820,-879.395,-867.188,-982.422
1612999603.036,-220.703,-209.961,-559.570,548.828
1612999603.036,-1000.000,-1000.000,-250.977,-786.133
1612999603.040,-220.215,-217.773,-451.660,128.906
1612999603.044,-823.730,-833.008,-829.102,-1000.000
1612999603.048,234.375,238.281,-685.547,-126.465
1612999603.052,-1000.000,-1000.000,-303.711,-765.137
1612999603.056,-266.113,-477.051,-320.312,210.449
1612999603.060,-809.082,-890.625,-689.941,-1000.000
1612999603.063,338.867,332.031,-780.762,-274.902
1612999603.067,-1000.000,-1000.000,-367.188,-827.148
1612999603.071,-656.250,-1000.000,-281.250,617.188
1612999603.075,975.586,489.746,-674.805,-1000.000
1612999603.079,771.973,820.801,-853.027,-583.984
1612999603.097,-770.020,-744.141,-465.820,946.289
1612999603.101,-1000.000,-1000.000,-211.426,-899.902
1612999603.105,171.387,-99.609,-542.480,-288.086
1612999603.109,-814.941,-851.562,-891.113,-1000.000
1612999603.113,-114.258,-54.688,-600.586,367.676
1612999603.117,-1000.000,-1000.000,-165.039,-765.625
1612999603.121,-228.027,-240.723,-351.074,181.152
1612999603.124,-822.754,-833.984,-815.918,-1000.000
1612999603.128,239.746,245.117,-726.074,-241.699
1612999603.132,-1000.000,-1000.000,-78.125,-785.156
1612999603.136,-368.652,-651.367,-80.078,322.754
1612999603.140,-844.727,995.117,-777.832,-1000.000
1612999603.142,411.133,437.500,-786.621,-279.785
1612999603.146,-1000.000,-1000.000,-342.773,-854.004
1612999603.150,-820.801,-1000.000,-301.758,753.418
1612999603.154,761.230,290.039,-689.453,-881.836
1612999603.158,923.340,954.590,-846.680,-693.359
1612999603.162,-603.516,-565.430,-444.824,885.742
1612999603.166,-1000.000,-1000.000,-207.520,-868.164
1612999603.169,75.684,-169.434,-537.109,-158.203
1612999603.173,-799.805,-843.262,-856.934,-1000.000
1612999603.177,-0.977,74.219,-494.629,169.922
1612999603.181,-1000.000,-1000.000,-180.664,-750.000
1612999603.185,-238.281,-284.180,-428.223,187.988
1612999603.187,-820.312,-836.426,-810.547,-1000.000
1612999603.191,243.652,243.164,-735.840,-277.832
1612999603.195,-1000.000,-1000.000,-306.152,-794.434
1612999603.199,-449.219,-754.883,-311.523,399.902
1612999603.203,-948.242,809.570,-708.984,-1000.000
1612999603.207,440.430,465.820,-776.367,-294.922
1612999603.211,-1000.000,-967.285,-342.285,-922.852
1612999603.214,-924.316,-1000.000,-207.031,874.023
1612999603.218,606.934,146.973,-572.754,-703.613
1612999603.222,-952.637,-916.504,-849.609,-853.027
1612999603.226,-425.781,-340.332,-541.992,717.773
1612999603.230,-1000.000,-1000.000,-197.266,-826.172
1612999603.232,-8.301,-207.031,-464.844,-42.480
1612999603.236,-787.109,-836.426,-874.512,-1000.000
1612999603.240,161.621,195.312,-668.457,10.254
1612999603.244,-1000.000,-1000.000,-229.004,-757.812
1612999603.248,-257.812,-397.461,-337.891,200.195
1612999603.252,-812.012,-866.211,-789.551,-1000.000
1612999603.256,240.723,244.629,-762.207,-276.855
1612999603.259,-1000.000,-1000.000,-244.141,-812.500
1612999603.263,-561.035,-900.879,-139.160,520.508
1612999603.267,-949.219,686.035,-691.406,-1000.000
1612999603.271,635.254,673.340,-851.562,-484.863
1612999603.275,-953.125,-900.391,-384.766,-981.445
1612999603.277,-1000.000,-1000.000,-232.422,999.512
1612999603.281,411.621,29.785,-615.723,-497.559
1612999603.285,-849.609,-865.234,-889.160,-981.445
1612999603.289,-226.074,-189.941,-493.164,554.199
1612999603.293,-1000.000,-1000.000,-119.629,-789.551
1612999603.297,-200.684,-219.727,-443.359,74.707
1612999603.301,-818.359,-833.984,-872.070,-1000.000
1612999603.304,231.445,234.863,-611.328,-82.520
1612999603.308,-1000.000,-1000.000,-187.988,-762.207
1612999603.312,-261.230,-520.508,-388.184,207.031
1612999603.316,-810.547,-914.551,-788.086,-1000.000
1612999603.320,246.094,306.641,-764.648,-275.879
1612999603.322,-1000.000,-1000.000,-339.355,-827.637
1612999603.326,-720.215,-1000.000,-304.688,617.188
1612999603.330,882.324,446.289,-680.664,-1000.000
1612999603.334,794.922,820.801,-818.359,-585.449
1612999603.338,-782.715,-758.789,-449.219,953.613
1612999603.342,-1000.000,-1000.000,-217.285,-922.852
1612999603.346,208.008,-61.523,-520.996,-285.645
1612999603.349,-791.504,-829.102,-805.664,-1000.000
1612999603.353,-16.113,3.418,-595.703,233.887
1612999603.357,-1000.000,-1000.000,-271.484,-759.766
1612999603.361,-239.258,-234.863,-448.730,169.922
1612999603.365,-814.941,-823.730,-841.797,-1000.000
1612999603.367,237.305,244.141,-716.797,-254.395
1612999603.371,-1000.000,-1000.000,-280.273,-791.992
1612999603.375,-352.539,-579.590,-302.734,281.250
1612999603.379,-839.844,-942.871,-757.324,-1000.000
1612999603.383,423.828,425.293,-794.434,-271.973
1612999603.387,-1000.000,-1000.000,-350.586,-857.422
1612999603.391,-798.828,-1000.000,-107.910,754.883
1612999603.394,796.387,296.875,-497.070,-881.836
1612999603.398,913.574,937.012,-868.652,-693.359
1612999603.402,-594.238,-587.402,-478.027,886.719
1612999603.406,-1000.000,-1000.000,-117.676,-870.117
1612999603.410,7.324,-183.105,-466.797,-154.785
1612999603.411,-809.570,-853.027,-900.879,-1000.000
1612999603.415,3.418,55.176,-602.539,142.578
1612999603.419,-1000.000,-1000.000,-194.824,-752.441
1612999603.423,-237.305,-314.453,-387.695,190.430
1612999603.427,-820.312,-851.074,-831.055,-1000.000
1612999603.431,242.188,247.559,-681.641,-274.902
1612999603.435,-1000.000,-1000.000,-166.504,-800.781
1612999603.438,-468.262,-776.855,-271.484,399.902
1612999603.442,-892.090,860.840,-760.254,-1000.000
1612999603.446,536.133,559.570,-772.949,-382.812
1612999603.450,-1000.000,-978.516,-323.730,-905.273
1612999603.454,-925.293,-1000.000,-225.098,843.262
1612999603.458,610.840,172.363,-619.629,-750.000
1612999603.462,-958.496,-935.059,-844.727,-838.867
1612999603.466,-416.992,-372.559,-502.441,727.051
1612999603.470,-1000.000,-1000.000,-259.766,-827.637
1612999603.474,-85.449,-209.961,-519.531,-43.457
1612999603.478,-806.641,-841.797,-857.422,-1000.000
1612999603.482,116.211,172.363,-629.883,22.461
1612999603.485,-1000.000,-1000.000,-227.539,-756.348
1612999603.489,-248.535,-402.832,-359.375,199.219
1612999603.493,-816.406,-871.582,-780.762,-1000.000
1612999603.497,242.188,245.605,-746.582,-276.855
1612999603.501,-1000.000,-1000.000,-335.938,-811.523
1612999603.518,-561.035,-916.016,-309.082,507.324
1612999603.522,-943.359,669.434,-695.801,-1000.000
1612999603.526,605.469,661.621,-815.918,-482.422
1612999603.530,-932.617,-906.738,-437.988,-981.934
1612999603.534,-1000.000,-1000.000,-221.191,998.047
1612999603.538,242.676,-2.930,-536.621,-493.164
1612999603.542,-839.844,-887.207,-869.629,-996.094
1612999603.545,-220.215,-225.098,-586.914,533.203
1612999603.549,-1000.000,-1000.000,-173.340,-791.016
1612999603.553,-220.215,-216.309,-354.980,71.777
1612999603.557,-823.730,-834.961,-874.512,-1000.000
1612999603.561,234.375,231.445,-686.523,-127.930
1612999603.562,-1000.000,-1000.000,-251.465,-771.973
1612999603.566,-266.113,-496.094,-357.422,213.379
1612999603.570,-808.105,-904.297,-786.621,-1000.000
1612999603.574,339.355,347.656,-792.480,-274.902
1612999603.578,-1000.000,-1000.000,-296.875,-817.383
1612999603.582,-616.699,-927.734,-225.098,529.297
1612999603.586,983.887,612.305,-671.387,-1000.000
1612999603.589,814.941,866.211,-877.441,-606.934
1612999603.593,-713.867,-683.105,-308.594,936.523
1612999603.597,-1000.000,-1000.000,32.715,-945.312
1612999603.601,222.168,-38.086,-550.781,-390.625
1612999603.605,-810.059,-837.891,-890.625,-1000.000
1612999603.606,-118.652,-64.941,-576.660,366.699
1612999603.610,-1000.000,-1000.000,-253.906,-769.043
1612999603.614,-228.516,-234.863,-445.312,182.129
1612999603.618,-822.754,-831.055,-822.754,-1000.000
1612999603.622,239.746,244.629,-670.410,-242.676
1612999603.626,-1000.000,-1000.000,-208.496,-788.574
1612999603.630,-368.652,-620.117,-279.297,228.027
1612999603.633,-845.215,-977.539,-722.168,-1000.000
1612999603.637,421.875,428.711,-735.840,-267.090
1612999603.641,-1000.000,-1000.000,-355.469,-851.074
1612999603.645,-794.922,-1000.000,-281.738,709.961
1612999603.649,798.828,294.922,-634.766,-932.129
1612999603.652,914.551,937.012,-806.641,-683.594
1612999603.656,-596.680,-588.379,-502.441,884.766
1612999603.660,-1000.000,-1000.000,-222.656,-871.094
1612999603.664,24.414,-179.688,-517.578,-154.297
1612999603.668,-807.129,-851.074,-878.906,-1000.000
1612999603.672,1.465,53.711,-612.305,139.648
1612999603.676,-1000.000,-1000.000,-221.191,-752.441
1612999603.679,-237.793,-292.480,-316.406,190.430
1612999603.683,-820.312,-842.773,-764.160,-1000.000
1612999603.687,242.188,245.117,-753.418,-273.438
1612999603.691,-1000.000,-1000.000,-269.043,-799.805
1612999603.695,-467.773,-755.371,-250.977,363.281
1612999603.697,-891.113,886.719,-731.445,-1000.000
1612999603.701,526.367,546.387,-833.984,-374.023
1612999603.705,-1000.000,-975.586,-352.539,-914.062
1612999603.709,-934.082,-1000.000,-167.480,865.723
1612999603.713,594.727,146.484,-612.305,-721.680
1612999603.717,-957.520,-960.449,-878.418,-841.309
1612999603.721,-415.039,-412.109,-459.473,725.098
1612999603.724,-1000.000,-1000.000,-35.645,-824.707
1612999603.728,-106.445,-208.496,-440.430,-18.555
1612999603.732,-811.035,-843.262,-903.320,-1000.000
1612999603.736,118.652,167.480,-632.324,10.742
1612999603.740,-1000.000,-1000.000,-257.324,-755.371
1612999603.743,-248.047,-396.973,-416.504,199.707
1612999603.747,-816.406,-870.605,-813.477,-1000.000
1612999603.751,242.188,250.977,-725.098,-275.391
1612999603.755,-1000.000,-1000.000,-333.984,-807.129
1612999603.759,-561.035,-864.746,-325.195,447.754
1612999603.763,-946.777,735.352,-705.566,-1000.000
1612999603.767,625.488,664.551,-762.207,-471.191
1612999603.770,-930.176,-895.508,-301.270,-985.840
1612999603.774,-1000.000,-1000.000,-224.121,995.605
1612999603.778,289.062,8.301,-624.023,-502.441
1612999603.782,-843.262,-885.254,-872.559,-988.770
1612999603.786,-221.680,-226.562,-565.430,543.457
1612999603.786,-1000.000,-1000.000,-266.602,-791.016
1612999603.790,-220.215,-216.797,-470.703,69.824
1612999603.794,-823.242,-834.961,-849.609,-1000.000
1612999603.798,234.375,233.887,-682.129,-110.352
1612999603.802,-1000.000,-1000.000,-275.391,-768.555
1612999603.806,-264.648,-497.070,-311.523,210.938
1612999603.810,-809.570,-901.855,-693.359,-1000.000
1612999603.813,312.500,313.477,-763.184,-275.391
1612999603.817,-1000.000,-1000.000,-381.348,-826.660
1612999603.821,-672.852,-1000.000,-228.516,613.281
1612999603.825,968.262,467.285,-593.262,-1000.000
1612999603.829,718.750,782.227,-857.910,-583.008
1612999603.848,-825.684,-792.480,-454.590,948.242
1612999603.852,-1000.000,-1000.000,-185.059,-907.227
1612999603.856,133.301,-116.699,-528.320,-277.344
1612999603.860,-817.871,-859.863,-882.812,-1000.000
1612999603.864,-111.328,-68.359,-590.332,293.945
1612999603.868,-1000.000,-1000.000,-174.805,-761.719
1612999603.872,-228.027,-234.863,-368.652,184.570
1612999603.875,-822.754,-833.008,-819.824,-1000.000
1612999603.879,239.746,245.605,-733.887,-252.441
1612999603.883,-1000.000,-1000.000,-126.465,-791.504
1612999603.887,-369.141,-617.676,-105.469,225.586
1612999603.891,-845.215,-976.074,-771.484,-1000.000
1612999603.892,426.758,431.641,-792.969,-266.113
1612999603.896,-1000.000,-1000.000,-369.629,-850.586
1612999603.900,-810.547,-1000.000,-305.664,706.543
1612999603.904,835.449,351.562,-701.660,-936.035
1612999603.908,810.547,837.891,-819.824,-682.617
1612999603.912,-779.785,-761.230,-378.418,883.789
1612999603.916,-1000.000,-1000.000,-196.777,-868.652
1612999603.919,41.992,-175.293,-548.828,-157.715
1612999603.923,-811.035,-858.887,-842.285,-1000.000
1612999603.927,-0.488,49.316,-545.898,166.016
1612999603.931,-1000.000,-1000.000,-257.324,-750.977
1612999603.935,-237.793,-330.078,-412.598,188.477
1612999603.937,-820.312,-857.422,-802.246,-1000.000
1612999603.941,244.141,251.465,-702.637,-275.879
1612999603.945,-1000.000,-1000.000,-299.805,-792.969
1612999603.949,-449.707,-762.695,-331.055,354.492
1612999603.953,-948.242,797.852,-715.332,-1000.000
1612999603.957,444.824,471.680,-791.504,-297.363
1612999603.961,-1000.000,-976.074,-372.070,-894.531
1612999603.964,-925.293,-1000.000,-219.727,756.348
1612999603.968,607.422,201.660,-580.078,-847.656
1612999603.972,-953.125,-914.551,-845.215,-858.398
1612999603.976,-424.805,-343.262,-542.480,676.758
1612999603.980,-1000.000,-1000.000,-236.816,-821.289
1612999603.983,-9.766,-210.449,-499.023,-46.875
1612999603.987,-791.992,-840.332,-860.352,-1000.000
1612999603.991,106.445,170.410,-653.809,44.434
1612999603.995,-1000.000,-1000.000,-231.934,-752.930
1612999603.999,-250.000,-396.484,-286.133,196.777
1612999604.003,-816.406,-869.141,-755.859,-1000.000
1612999604.007,242.188,247.070,-777.344,-276.855
1612999604.010,-1000.000,-1000.000,-260.254,-811.523
1612999604.014,-561.035,-889.160,-145.508,502.930
1612999604.018,-943.848,706.543,-699.219,-1000.000
1612999604.022,603.516,653.809,-845.215,-481.445
1612999604.026,-937.988,-910.645,-363.770,-982.910
1612999604.026,-1000.000,-1000.000,-219.238,-1000.000
1612999604.030,262.207,4.395,-637.207,-497.559
1612999604.034,-840.332,-883.301,-877.441,-981.934
1612999604.038,-221.680,-219.727,-520.020,554.688
1612999604.042,-1000.000,-1000.000,-199.707,-790.527
1612999604.046,-208.008,-217.285,-450.195,66.406
1612999604.050,-820.312,-834.473,-872.559,-1000.000
1612999604.053,232.422,232.910,-593.262,-82.520
1612999604.057,-1000.000,-1000.000,-71.777,-763.184
1612999604.061,-263.672,-488.770,-316.895,207.520
1612999604.065,-810.059,-899.414,-797.852,-1000.000
1612999604.069,290.527,312.012,-764.648,-275.879
1612999604.071,-1000.000,-1000.000,-343.750,-821.289
1612999604.075,-648.438,-973.145,-308.594,566.895
1612999604.079,970.215,547.363,-692.383,-1000.000
1612999604.083,777.344,831.055,-834.473,-578.613
1612999604.087,-776.855,-734.375,-431.641,955.566
1612999604.091,-1000.000,-1000.000,-173.828,-936.523
1612999604.095,220.703,-44.922,-500.977,-358.887
1612999604.098,-811.035,-841.797,-812.012,-1000.000
1612999604.102,-118.652,-69.824,-583.008,371.582
1612999604.106,-1000.000,-1000.000,-260.254,-767.578
1612999604.110,-228.516,-238.770,-400.879,180.176
1612999604.114,-823.242,-833.496,-790.527,-1000.000
1612999604.116,239.746,244.629,-715.820,-227.539
1612999604.120,-1000.000,-1000.000,-300.781,-782.227
1612999604.124,-372.559,-662.109,-329.590,295.410
1612999604.128,-846.191,986.328,-765.137,-1000.000
1612999604.132,377.441,422.852,-767.090,-279.297
1612999604.136,-1000.000,-1000.000,-304.688,-842.773
1612999604.140,-786.621,-1000.000,-117.188,697.754
1612999604.143,793.457,319.336,-511.719,-942.871
1612999604.147,921.875,939.453,-891.113,-682.129
1612999604.151,-606.934,-588.379,-492.188,885.254
1612999604.155,-1000.000,-1000.000,-147.949,-871.582
1612999604.159,109.863,-164.551,-490.723,-168.945
1612999604.163,-795.898,-846.680,-899.414,-1000.000
1612999604.167,-7.812,56.641,-606.445,167.969
1612999604.171,-1000.000,-1000.000,-156.250,-751.465
1612999604.175,-238.770,-301.270,-366.699,188.477
1612999604.179,-820.312,-845.215,-848.633,-1000.000
1612999604.183,242.188,244.629,-679.199,-274.902
1612999604.187,-1000.000,-1000.000,-153.809,-800.781
1612999604.190,-467.773,-778.320,-278.320,397.949
1612999604.194,-890.137,860.840,-768.066,-1000.000
1612999604.198,511.719,545.898,-781.250,-383.301
1612999604.202,-1000.000,-988.281,-350.098,-901.855
1612999604.206,-920.898,-1000.000,-281.250,830.566
1612999604.222,608.398,179.688,-662.109,-765.625
1612999604.226,-956.543,-935.059,-859.375,-836.426
1612999604.230,-416.992,-374.512,-513.184,724.121
1612999604.234,-1000.000,-1000.000,-248.535,-817.871
1612999604.238,-48.340,-208.496,-517.578,-66.895
1612999604.242,-859.375,-843.750,-797.852,-1000.000
1612999604.246,25.391,155.273,-566.406,151.367
1612999604.249,-1000.000,-1000.000,-230.469,-761.719
1612999604.253,-249.023,-411.133,-361.328,194.824
1612999604.257,-818.848,-878.906,-797.852,-1000.000
1612999604.261,242.188,254.395,-752.441,-275.879
1612999604.265,-1000.000,-1000.000,-316.406,-806.641
1612999604.267,-561.035,-845.215,-302.246,441.895
1612999604.271,-949.219,760.742,-709.473,-1000.000
1612999604.275,635.254,660.645,-823.730,-472.168
1612999604.279,-953.125,-899.902,-424.805,-981.445
1612999604.283,-1000.000,-1000.000,-196.777,981.445
1612999604.287,411.133,35.156,-546.387,-528.320
1612999604.291,-848.145,-880.371,-864.258,-978.516
1612999604.294,-228.516,-227.051,-583.496,554.688
1612999604.298,-1000.000,-1000.000,-173.340,-790.039
1612999604.302,-169.922,-217.285,-325.195,64.941
1612999604.306,-810.547,-835.938,-861.328,-1000.000
1612999604.310,227.051,229.004,-681.152,-66.895
1612999604.311,-1000.000,-1000.000,-191.895,-759.766
1612999604.315,-262.695,-513.184,-303.711,207.031
1612999604.319,-805.176,-911.621,-795.898,-1000.000
1612999604.323,222.656,299.805,-772.461,-257.324
1612999604.327,-1000.000,-1000.000,-274.902,-882.324
1612999604.331,-595.215,-1000.000,-208.008,519.531
1612999604.335,942.871,470.215,-652.832,-1000.000
1612999604.338,731.934,783.691,-863.281,-586.426
1612999604.342,-833.008,-798.828,-306.152,953.613
1612999604.346,-1000.000,-1000.000,7.812,-930.664
1612999604.350,218.262,-73.730,-562.500,-343.262
1612999604.354,-811.523,-846.191,-893.066,-1000.000
1612999604.356,-118.652,-60.059,-553.711,365.234
1612999604.360,-1000.000,-1000.000,-238.770,-767.578
1612999604.364,-228.516,-227.539,-462.891,160.645
1612999604.368,-821.777,-828.125,-845.703,-1000.000
1612999604.372,238.281,245.117,-666.016,-216.797
1612999604.376,-1000.000,-1000.000,-212.402,-784.180
1612999604.380,-344.727,-578.613,-326.660,221.680
1612999604.383,-835.449,-941.406,-739.746,-1000.000
1612999604.387,357.422,394.531,-728.516,-266.113
1612999604.391,-1000.000,-1000.000,-358.887,-854.492
1612999604.395,-805.176,-1000.000,-276.855,724.609
1612999604.399,784.180,294.922,-640.625,-916.504
1612999604.401,876.465,907.715,-826.660,-687.012
1612999604.405,-660.645,-631.836,-496.094,885.254
1612999604.409,-1000.000,-1000.000,-243.652,-869.629
1612999604.413,61.035,-172.852,-532.715,-166.992
1612999604.417,-803.223,-854.980,-875.488,-1000.000
1612999604.421,-2.441,35.645,-601.074,180.176
1612999604.425,-1000.000,-1000.000,-208.984,-750.000
1612999604.428,-238.281,-317.383,-324.219,187.500
1612999604.432,-820.312,-854.492,-773.438,-1000.000
1612999604.436,242.188,250.977,-741.211,-272.461
1612999604.440,-1000.000,-1000.000,-286.133,-798.340
1612999604.444,-468.262,-735.352,-299.805,333.496
1612999604.448,-892.090,905.762,-738.770,-1000.000
1612999604.452,530.273,548.340,-810.059,-378.418
1612999604.456,-1000.000,-986.328,-351.562,-887.695
1612999604.460,-924.316,-1000.000,-185.059,760.742
1612999604.464,610.352,227.051,-613.770,-859.375
1612999604.468,-957.520,-961.426,-874.023,-822.754
1612999604.472,-417.969,-425.293,-456.543,724.609
1612999604.475,-1000.000,-1000.000,-53.223,-828.613
1612999604.479,-75.684,-207.031,-450.195,-52.734
1612999604.483,-804.688,-845.215,-900.391,-1000.000
1612999604.487,114.746,144.043,-626.465,53.711
1612999604.491,-1000.000,-1000.000,-242.676,-752.441
1612999604.492,-248.535,-387.207,-393.555,195.801
1612999604.496,-816.406,-868.652,-803.223,-1000.000
1612999604.500,242.188,246.582,-736.328,-276.367
1612999604.504,-1000.000,-1000.000,-310.547,-808.594
1612999604.508,-561.035,-892.090,-305.176,468.750
1612999604.512,-935.547,708.008,-729.980,-1000.000
1612999604.516,537.598,624.023,-767.090,-476.562
1612999604.519,-985.352,-934.082,-276.855,-980.469
1612999604.523,-1000.000,-1000.000,-205.078,984.375
1612999604.527,284.180,8.301,-624.023,-522.461
1612999604.531,-853.027,-895.508,-876.953,-980.469
1612999604.535,-251.953,-250.977,-557.129,556.641
1612999604.537,-1000.000,-1000.000,-270.996,-792.969
1612999604.541,-177.246,-214.844,-489.746,48.340
1612999604.545,-813.477,-836.426,-840.332,-1000.000
1612999604.549,228.027,223.633,-673.828,-77.148
1612999604.553,-1000.000,-1000.000,-292.969,-763.672
1612999604.557,-262.695,-476.074,-335.938,207.520
1612999604.561,-810.547,-893.555,-722.656,-1000.000
1612999604.564,262.695,300.293,-761.719,-275.879
1612999604.568,-1000.000,-1000.000,-338.379,-816.406
1612999604.572,-649.414,-989.746,-248.047,529.297
1612999604.576,987.305,545.898,-630.859,-1000.000
1612999604.580,694.824,754.883,-852.051,-572.266
1612999604.596,-867.188,-817.383,-454.102,956.543
1612999604.600,-1000.000,-1000.000,-210.449,-946.777
1612999604.604,214.355,-94.727,-561.035,-378.906
1612999604.608,-812.012,-857.910,-891.602,-1000.000
1612999604.612,-118.164,-87.402,-594.727,374.023
1612999604.616,-1000.000,-1000.000,-175.781,-772.949
1612999604.620,-228.516,-224.121,-372.559,125.000
1612999604.623,-822.754,-831.055,-847.168,-1000.000
1612999604.627,239.746,243.164,-710.449,-229.004
1612999604.631,-1000.000,-1000.000,-115.234,-791.504
1612999604.635,-365.723,-639.160,-186.523,225.098
1612999604.639,-842.773,-994.141,-781.250,-1000.000
1612999604.642,346.191,382.324,-790.039,-270.996
1612999604.646,-1000.000,-1000.000,-281.738,-835.449
1612999604.650,-791.016,-1000.000,-239.258,641.113
1612999604.654,816.895,315.918,-714.355,-1000.000
1612999604.658,838.867,845.215,-838.867,-676.270
1612999604.662,-731.445,-729.492,-412.598,893.555
1612999604.666,-1000.000,-1000.000,-211.914,-893.066
1612999604.669,108.887,-158.691,-581.055,-250.000
1612999604.673,-798.828,-854.004,-853.516,-1000.000
1612999604.677,-7.812,25.391,-538.086,181.152
1612999604.681,-1000.000,-1000.000,-264.648,-755.371
1612999604.685,-238.770,-289.062,-454.590,188.477
1612999604.688,-819.824,-843.750,-830.566,-1000.000
1612999604.692,242.188,247.559,-720.703,-272.949
1612999604.696,-1000.000,-1000.000,-297.852,-798.340
1612999604.700,-459.961,-718.750,-327.637,333.984
1612999604.704,-885.254,928.223,-740.234,-1000.000
1612999604.708,477.539,508.789,-763.672,-376.953
1612999604.712,-1000.000,-992.676,-303.223,-892.090
1612999604.715,-920.410,-1000.000,-234.863,777.344
1612999604.719,622.070,174.805,-587.891,-837.891
1612999604.723,990.234,-999.512,-824.219,-825.684
1612999604.727,-494.141,-479.004,-517.578,724.609
1612999604.731,-1000.000,-1000.000,-217.285,-827.148
1612999604.732,-105.957,-204.590,-513.672,-46.875
1612999604.736,-812.988,-849.121,-878.418,-1000.000
1612999604.740,117.676,126.465,-658.203,51.758
1612999604.744,-1000.000,-1000.000,-226.074,-752.441
1612999604.748,-248.047,-389.648,-342.285,195.801
1612999604.752,-816.406,-873.047,-802.734,-1000.000
1612999604.756,242.188,252.441,-750.488,-275.879
1612999604.759,-1000.000,-1000.000,-257.324,-805.664
1612999604.763,-560.547,-840.820,-104.492,434.082
1612999604.767,-940.918,776.367,-633.301,-1000.000
1612999604.771,571.777,619.141,-861.816,-478.516
1612999604.775,-992.188,-934.082,-393.066,-959.961
1612999604.776,-1000.000,-1000.000,-237.305,910.156
1612999604.780,416.016,41.016,-637.695,-638.184
1612999604.784,-873.535,-899.902,-893.066,-968.262
1612999604.788,-283.691,-274.414,-535.156,558.105
1612999604.792,-1000.000,-1000.000,-233.887,-796.875
1612999604.796,-145.508,-214.355,-492.676,32.227
1612999604.800,-806.152,-837.402,-869.629,-1000.000
1612999604.803,223.633,221.191,-583.984,-54.199
1612999604.807,-1000.000,-1000.000,-164.551,-760.742
1612999604.811,-261.719,-484.375,-399.414,205.078
1612999604.815,-811.035,-898.438,-794.922,-1000.000
1612999604.819,239.258,281.738,-754.883,-276.367
1612999604.821,-1000.000,-1000.000,-343.262,-821.289
1612999604.825,-648.926,-1000.000,-310.059,567.871
1612999604.829,996.582,488.770,-693.848,-1000.000
1612999604.833,646.973,753.418,-827.637,-579.590
1612999604.837,-920.410,-826.660,-423.828,957.520
1612999604.841,-1000.000,-1000.000,-197.266,-941.895
1612999604.845,212.891,-82.520,-526.367,-367.676
1612999604.848,-805.176,-851.074,-823.730,-1000.000
1612999604.852,-137.207,-120.605,-583.984,392.578
1612999604.856,-1000.000,-1000.000,-283.203,-824.219
1612999604.860,-140.137,-135.254,-459.473,57.617
1612999604.864,-833.496,-841.797,-819.824,-1000.000
1612999604.867,239.746,245.605,-710.449,-177.734
1612999604.871,-1000.000,-1000.000,-265.137,-777.832
1612999604.875,-364.746,-588.379,-304.199,216.309
1612999604.879,-842.285,-952.148,-763.184,-1000.000
1612999604.883,345.703,392.578,-787.109,-273.926
1612999604.887,-1000.000,-1000.000,-322.754,-830.566
1612999604.891,-785.156,-1000.000,-95.703,619.629
1612999604.894,803.223,393.066,-528.809,-1000.000
1612999604.898,877.441,892.090,-881.836,-664.551
1612999604.902,-658.203,-652.344,-479.004,879.395
1612999604.906,-1000.000,-1000.000,-193.359,-868.652
1612999604.910,77.637,-165.039,-530.762,-159.668
1612999604.913,-805.176,-855.957,-897.949,-1000.000
1612999604.917,-23.438,9.766,-595.703,179.199
1612999604.921,-1000.000,-1000.000,-158.691,-749.512
1612999604.925,-236.328,-279.785,-388.672,187.500
1612999604.929,-821.289,-842.285,-851.074,-1000.000
1612999604.933,242.676,248.047,-682.129,-272.949
1612999604.937,-1000.000,-1000.000,-56.641,-796.387
1612999604.940,-464.355,-699.707,-170.898,338.379
1612999604.944,-884.766,948.242,-776.367,-1000.000
1612999604.948,452.148,508.789,-795.410,-329.590
1612999604.952,-1000.000,-1000.000,-350.098,-880.371
1612999604.956,-909.180,-1000.000,-254.395,787.598
1612999604.971,603.027,232.910,-654.785,-810.059
1612999604.975,-950.684,-953.613,-852.051,-833.008
1612999604.979,-423.828,-415.527,-494.141,727.539
1612999604.983,-1000.000,-1000.000,-208.496,-825.684
1612999604.987,14.648,-173.340,-514.160,-104.492
1612999604.991,-847.168,-895.996,-809.082,-1000.000
1612999604.995,17.578,58.594,-539.551,159.180
1612999604.998,-1000.000,-1000.000,-187.500,-763.672
1612999605.002,-250.000,-368.164,-333.008,195.312
1612999605.006,-818.848,-862.793,-786.133,-1000.000
1612999605.010,242.188,248.047,-739.746,-276.367
1612999605.014,-1000.000,-1000.000,-299.805,-806.152
1612999605.016,-561.035,-837.891,-281.738,453.613
1612999605.020,-941.406,780.762,-703.613,-1000.000
1612999605.024,569.824,621.094,-816.406,-442.383
1612999605.028,-991.699,-936.035,-395.020,-958.496
1612999605.032,-1000.000,-1000.000,-172.852,952.148
1612999605.036,432.129,70.312,-549.805,-560.547
1612999605.040,-920.410,-905.273,-870.117,-975.586
1612999605.043,-366.699,-293.945,-518.066,554.688
1612999605.047,-1000.000,-1000.000,-104.004,-789.551
1612999605.051,-167.969,-213.867,-333.008,62.988
1612999605.055,-815.430,-837.402,-865.234,-1000.000
1612999605.059,227.051,215.332,-691.406,-48.340
1612999605.061,-1000.000,-1000.000,-212.891,-756.348
1612999605.065,-264.648,-450.195,-321.289,203.125
1612999605.069,-807.617,-885.254,-794.434,-1000.000
1612999605.073,292.480,311.035,-773.926,-275.879
1612999605.077,-1000.000,-1000.000,-247.070,-815.430
1612999605.081,-560.547,-876.465,-198.242,514.160
1612999605.085,-975.098,694.824,-682.129,-1000.000
1612999605.088,765.625,801.270,-853.027,-581.543
1612999605.092,-788.086,-778.320,-287.109,986.328
1612999605.096,-1000.000,-1000.000,-25.879,961.914
1612999605.100,311.035,66.895,-581.543,-534.180
1612999605.104,-825.684,-862.305,-881.836,-1000.000
1612999605.107,-131.836,-127.930,-531.250,374.512
1612999605.111,-1000.000,-1000.000,-194.824,-770.996
1612999605.115,-227.539,-222.656,-463.379,158.203
1612999605.119,-821.777,-832.031,-848.145,-1000.000
1612999605.123,237.305,245.605,-674.316,-162.598
1612999605.127,-1000.000,-1000.000,-225.098,-769.531
1612999605.131,-328.125,-575.195,-307.617,213.379
1612999605.134,-829.590,-940.430,-745.117,-1000.000
1612999605.138,339.844,367.676,-719.238,-270.508
1612999605.142,-1000.000,-1000.000,-357.910,-842.773
1612999605.146,-793.457,-1000.000,-285.645,675.293
1612999605.150,824.219,346.191,-644.531,-969.727
1612999605.153,800.781,878.418,-853.516,-670.898
1612999605.157,-766.113,-674.316,-423.828,897.949
1612999605.161,-1000.000,-1000.000,-161.621,-887.207
1612999605.165,106.934,-144.531,-537.109,-223.633
1612999605.169,-798.828,-848.145,-876.465,-1000.000
1612999605.173,-7.812,16.113,-585.938,184.570
1612999605.177,-1000.000,-1000.000,-204.102,-753.418
1612999605.180,-238.770,-260.742,-343.262,187.988
1612999605.184,-816.406,-833.984,-773.438,-1000.000
1612999605.188,238.281,246.582,-736.328,-271.973
1612999605.192,-1000.000,-1000.000,-259.277,-796.387
1612999605.196,-370.605,-656.250,-285.645,321.289
1612999605.197,-847.168,989.258,-754.395,-1000.000
1612999605.201,467.773,501.953,-811.523,-329.590
1612999605.205,-1000.000,-1000.000,-347.656,-872.070
1612999605.209,-860.840,-1000.000,-192.871,753.418
1612999605.213,679.199,253.906,-615.723,-854.980
1612999605.217,-962.891,-972.168,-866.211,-826.660
1612999605.221,-424.316,-450.195,-464.844,733.398
1612999605.224,-1000.000,-1000.000,59.570,-838.867
1612999605.228,-1.953,-195.801,-347.656,-111.328
1612999605.232,-793.457,-846.191,-924.805,-1000.000
1612999605.236,86.426,110.840,-604.980,73.730
1612999605.240,-1000.000,-1000.000,-235.840,-754.395
1612999605.241,-247.559,-366.699,-416.992,195.312
1612999605.245,-816.406,-864.746,-817.383,-1000.000
1612999605.249,242.188,250.488,-729.492,-275.879
1612999605.253,-1000.000,-1000.000,-296.387,-804.199
1612999605.257,-533.691,-824.219,-292.969,432.617
1612999605.261,-923.828,800.781,-704.590,-1000.000
1612999605.265,541.504,603.516,-754.395,-442.871
1612999605.268,-1000.000,-943.359,-302.734,-943.359
1612999605.272,-1000.000,-1000.000,-200.195,900.391
1612999605.276,424.316,61.523,-621.582,-640.625
1612999605.280,-901.367,-911.133,-874.023,-969.238
1612999605.284,-341.797,-300.781,-530.762,559.082
1612999605.287,-1000.000,-1000.000,-243.652,-797.363
1612999605.291,-116.699,-213.379,-495.605,20.508
1612999605.295,-800.781,-837.891,-854.980,-1000.000
1612999605.299,219.727,216.797,-669.922,-42.969
1612999605.303,-1000.000,-1000.000,-266.113,-759.277
1612999605.307,-262.695,-464.355,-319.824,204.102
1612999605.311,-810.547,-890.625,-743.164,-1000.000
1612999605.314,239.746,274.414,-761.719,-276.855
1612999605.318,-1000.000,-1000.000,-337.891,-819.824
1612999605.322,-649.414,-972.656,-246.582,564.941
1612999605.326,998.535,571.289,-638.672,-1000.000
1612999605.330,639.648,734.375,-845.215,-540.039
1612999605.333,-926.758,-840.332,-438.477,991.211
1612999605.337,-1000.000,-1000.000,-116.211,-980.957
1612999605.341,225.098,-52.734,-468.750,-423.340
1612999605.345,-832.031,-867.676,-889.648,-1000.000
1612999605.349,-193.359,-149.414,-555.176,377.930
1612999605.353,-1000.000,-1000.000,-141.602,-770.508
1612999605.357,-222.656,-220.703,-382.812,119.141
1612999605.360,-821.777,-832.520,-854.492,-1000.000
1612999605.364,233.887,245.605,-687.500,-157.227
1612999605.368,-1000.000,-1000.000,-120.605,-772.949
1612999605.372,-266.113,-544.434,-224.121,214.355
1612999605.376,-808.594,-923.828,-802.246,-1000.000
1612999605.407,330.078,368.652,-790.039,-270.996
1612999605.411,-1000.000,-1000.000,-307.617,-839.844
1612999605.415,-791.504,-1000.000,-236.816,667.480
1612999605.419,823.730,391.113,-708.008,-985.840
1612999605.423,812.500,873.047,-851.074,-615.234
1612999605.427,-749.512,-680.176,-371.582,920.898
1612999605.431,-1000.000,-1000.000,-153.320,-880.859
1612999605.434,109.863,-141.113,-561.523,-174.316
1612999605.438,-802.246,-852.051,-849.609,-1000.000
1612999605.442,-27.832,-2.441,-540.039,220.215
1612999605.446,-1000.000,-1000.000,-225.098,-752.930
1612999605.450,-236.328,-279.297,-407.227,186.523
1612999605.436,-821.777,-842.773,-818.848,-1000.000
1612999605.440,242.676,245.605,-707.520,-272.949
1612999605.444,-1000.000,-1000.000,-280.762,-796.875
1612999605.448,-466.309,-739.258,-306.152,331.543
1612999605.452,-885.742,906.738,-727.051,-1000.000
1612999605.456,449.219,483.887,-771.973,-346.191
1612999605.460,-1000.000,-1000.000,-319.336,-868.164
1612999605.463,-916.016,-1000.000,-208.008,720.703
1612999605.467,644.531,234.863,-611.816,-892.578
1612999605.471,936.035,984.375,-859.863,-822.754
1612999605.475,-598.145,-511.719,-535.645,733.398
1612999605.479,-1000.000,-1000.000,-262.207,-843.750
1612999605.482,1.465,-199.219,-468.750,-138.672
1612999605.486,-802.246,-851.074,-834.961,-1000.000
1612999605.490,55.664,91.309,-655.273,76.660
1612999605.494,-1000.000,-1000.000,-244.629,-756.348
1612999605.498,-243.652,-348.633,-390.137,195.801
1612999605.502,-819.824,-860.352,-813.965,-1000.000
1612999605.506,243.164,247.070,-751.465,-275.879
1612999605.509,-1000.000,-1000.000,-247.070,-803.711
1612999605.513,-557.617,-840.332,-39.062,432.129
1612999605.517,-936.523,781.738,-599.121,-1000.000
1612999605.521,546.387,589.355,-857.422,-423.340
1612999605.525,-1000.000,-951.660,-324.707,-941.406
1612999605.527,-1000.000,-1000.000,-170.898,915.039
1612999605.531,437.988,56.152,-631.348,-610.840
1612999605.535,-940.430,-932.617,-877.441,-976.074
1612999605.539,-415.039,-335.449,-489.258,563.965
1612999605.543,-1000.000,-1000.000,-191.895,-803.223
1612999605.547,-111.328,-211.914,-479.004,-26.855
1612999605.551,-806.152,-839.844,-866.699,-1000.000
1612999605.554,178.711,206.055,-566.895,-37.109
1612999605.558,-1000.000,-1000.000,-135.254,-762.695
1612999605.562,-256.836,-461.914,-379.395,205.078
1612999605.566,-812.012,-893.066,-786.621,-1000.000
1612999605.570,240.723,278.809,-735.840,-275.879
1612999605.571,-1000.000,-1000.000,-333.008,-813.965
1612999605.575,-574.707,-912.598,-335.449,500.000
1612999605.579,-976.074,655.762,-718.750,-1000.000
1612999605.583,705.566,750.488,-828.125,-561.523
1612999605.587,-872.559,-828.613,-420.410,977.051
1612999605.591,-1000.000,-1000.000,-226.562,-995.117
1612999605.595,355.469,20.508,-562.988,-474.609
1612999605.598,-821.777,-840.332,-818.359,-1000.000
1612999605.602,-125.977,-121.582,-575.684,398.926
1612999605.606,-1000.000,-1000.000,-278.320,-772.949
1612999605.610,-228.516,-224.609,-469.727,143.555
1612999605.614,-817.871,-830.566,-843.262,-1000.000
1612999605.633,233.398,245.117,-690.430,-160.645
1612999605.637,-1000.000,-1000.000,-224.609,-770.508
1612999605.641,-266.602,-546.387,-229.980,213.867
1612999605.645,-808.594,-925.293,-703.613,-1000.000
1612999605.649,330.078,351.074,-778.320,-274.414
1612999605.653,-1000.000,-1000.000,-287.598,-828.613
1612999605.657,-795.410,-1000.000,-120.605,617.188
1612999605.660,825.195,401.855,-583.984,-1000.000
1612999605.664,797.363,855.469,-860.840,-644.043
1612999605.668,-769.043,-703.613,-451.660,912.109
1612999605.672,-1000.000,-1000.000,-34.668,-901.367
1612999605.676,116.211,-127.441,-413.086,-259.277
1612999605.662,-813.477,-852.539,-918.945,-1000.000
1612999605.666,-84.473,-25.391,-589.355,187.988
1612999605.670,-1000.000,-1000.000,-196.777,-755.859
1612999605.674,-230.469,-256.348,-405.762,187.988
1612999605.678,-821.289,-836.426,-837.402,-1000.000
1612999605.682,239.258,247.559,-665.527,-271.484
1612999605.686,-1000.000,-1000.000,-188.965,-793.945
1612999605.689,-369.629,-631.836,-322.266,309.082
1612999605.693,-844.238,-988.770,-771.484,-1000.000
1612999605.697,431.152,479.980,-774.902,-276.367
1612999605.701,-1000.000,-1000.000,-132.812,-855.469
1612999605.705,-923.828,-1000.000,-97.656,749.023
1612999605.721,637.207,243.164,-678.223,-865.723
1612999605.725,937.012,970.215,-841.309,-765.137
1612999605.729,-598.145,-533.203,-487.305,794.922
1612999605.733,-1000.000,-1000.000,-240.723,-845.215
1612999605.737,1.953,-197.754,-521.973,-76.172
1612999605.741,-803.223,-848.633,-851.562,-1000.000
1612999605.745,51.270,99.121,-615.234,70.312
1612999605.748,-1000.000,-1000.000,-206.543,-752.441
1612999605.752,-243.164,-321.777,-369.141,194.824
1612999605.756,-816.895,-849.121,-781.738,-1000.000
1612999605.760,241.211,248.535,-684.570,-275.879
1612999605.764,-1000.000,-1000.000,-326.660,-801.758
1612999605.767,-468.262,-751.465,-332.031,430.176
1612999605.771,-890.625,885.742,-718.750,-1000.000
1612999605.775,531.738,596.191,-810.547,-376.953
1612999605.779,-1000.000,-945.801,-395.020,-933.594
1612999605.783,-1000.000,-1000.000,-206.543,945.801
1612999605.787,480.957,126.465,-565.430,-593.262
1612999605.791,-945.312,-914.551,-850.586,-869.629
1612999605.794,-415.039,-328.125,-534.180,696.777
1612999605.798,-1000.000,-1000.000,-159.668,-812.500
1612999605.802,-110.840,-213.379,-352.539,47.852
1612999605.806,-807.129,-838.379,-839.355,-1000.000
1612999605.810,169.922,205.078,-678.223,-33.691
1612999605.812,-1000.000,-1000.000,-153.809,-755.859
1612999605.816,-255.371,-437.012,-246.094,202.148
1612999605.820,-812.500,-883.789,-801.758,-1000.000
1612999605.824,240.723,279.297,-764.160,-276.855
1612999605.828,-1000.000,-1000.000,-253.418,-812.988
1612999605.832,-561.035,-840.820,-232.910,527.344
1612999605.836,-947.266,768.066,-694.336,-1000.000
1612999605.839,628.906,721.680,-840.332,-486.328
1612999605.843,-937.988,-839.844,-277.832,-979.980
1612999605.847,-1000.000,-1000.000,-27.832,996.094
1612999605.851,330.566,17.578,-601.074,-489.258
1612999605.855,-845.703,-858.398,-885.254,-1000.000
1612999605.858,-222.168,-167.969,-548.340,504.883
1612999605.862,-1000.000,-1000.000,-214.844,-782.715
1612999605.866,-220.215,-221.191,-456.055,151.367
1612999605.870,-823.730,-833.008,-841.309,-1000.000
1612999605.874,234.375,243.652,-646.484,-142.578
1612999605.878,-1000.000,-1000.000,-210.938,-766.113
1612999605.882,-270.020,-547.363,-304.688,211.426
1612999605.885,-810.059,-927.246,-737.793,-1000.000
1612999605.889,332.031,347.656,-720.703,-274.414
1612999605.893,-1000.000,-1000.000,-355.957,-827.637
1612999605.897,-770.508,-1000.000,-307.129,617.188
1612999605.901,852.539,429.199,-682.617,-1000.000
1612999605.901,791.992,841.309,-839.844,-591.309
1612999605.905,-765.625,-718.262,-460.449,942.383
1612999605.909,-1000.000,-1000.000,-235.840,-900.879
1612999605.913,137.695,-111.816,-553.711,-283.691
1612999605.917,-875.000,-912.598,-860.840,-1000.000
1612999605.921,-198.242,-124.512,-567.871,331.055
1612999605.925,-1000.000,-1000.000,-221.191,-770.020
1612999605.928,-228.027,-265.137,-352.539,186.523
1612999605.932,-828.125,-843.262,-758.301,-1000.000
1612999605.936,242.188,247.559,-728.027,-272.949
1612999605.940,-1000.000,-1000.000,-306.641,-793.457
1612999605.944,-433.105,-684.082,-329.590,327.148
1612999605.947,-872.070,965.332,-745.605,-1000.000
1612999605.951,447.754,469.238,-808.105,-278.809
1612999605.955,-1000.000,-1000.000,-362.305,-854.004
1612999605.959,-868.652,-1000.000,-259.766,752.441
1612999605.963,707.520,272.461,-659.180,-875.977
1612999605.967,926.758,979.492,-838.379,-717.773
1612999605.971,-596.191,-524.414,-469.238,860.840
1612999605.974,-1000.000,-1000.000,31.250,-868.164
1612999605.978,7.324,-188.965,-342.285,-149.414
1612999605.982,-809.570,-850.586,-918.945,-1000.000
1612999605.986,3.418,78.125,-606.934,101.562
1612999605.990,-1000.000,-1000.000,-240.234,-755.371
1612999605.991,-237.305,-337.891,-432.129,193.848
1612999605.995,-821.777,-857.910,-817.871,-1000.000
1612999605.999,243.164,248.535,-725.586,-274.902
1612999606.003,-1000.000,-1000.000,-332.520,-800.781
1612999606.007,-505.859,-805.664,-343.262,406.738
1612999606.011,-909.180,827.148,-732.422,-1000.000
1612999606.015,536.133,573.730,-742.676,-377.441
1612999606.018,-1000.000,-958.984,-322.754,-922.363
1612999606.022,-1000.000,-1000.000,-302.734,903.320
1612999606.026,437.988,76.172,-646.973,-647.461
1612999606.030,-940.430,-930.664,-852.051,-895.996
1612999606.034,-415.039,-341.309,-554.688,660.645
1612999606.036,-1000.000,-1000.000,-302.246,-812.988
1612999606.040,-112.305,-212.402,-519.043,8.789
1612999606.044,-805.664,-838.379,-841.797,-1000.000
1612999606.048,190.430,204.590,-664.062,-24.414
1612999606.052,-1000.000,-1000.000,-280.762,-758.301
1612999606.056,-258.301,-422.363,-335.938,202.148
1612999606.060,-812.012,-875.000,-713.379,-1000.000
1612999606.063,240.234,266.113,-753.906,-276.367
1612999606.067,-1000.000,-1000.000,-374.512,-812.012
1612999606.071,-599.121,-928.711,-304.688,515.137
1612999606.075,-969.727,647.461,-667.969,-1000.000
1612999606.079,628.906,698.730,-820.312,-483.887
1612999606.083,-921.875,-869.141,-441.406,-980.469
1612999606.087,-1000.000,-1000.000,-139.160,992.676
1612999606.091,225.098,-39.062,-477.539,-476.074
1612999606.095,-824.707,-863.281,-894.531,-1000.000
1612999606.099,-256.836,-221.191,-556.152,501.465
1612999606.103,-1000.000,-1000.000,-205.566,-887.695
1612999606.107,-39.062,-37.109,-440.918,-86.426
1612999606.110,-842.773,-853.027,-833.008,-1000.000
1612999606.114,233.398,237.793,-701.172,-142.090
1612999606.118,-1000.000,-1000.000,-196.777,-778.320
1612999606.122,-283.203,-562.012,-272.461,213.867
1612999606.126,-817.383,-941.895,-782.715,-1000.000
1612999606.141,311.035,340.820,-770.508,-274.414
1612999606.145,-1000.000,-1000.000,-333.496,-827.637
1612999606.149,-733.887,-935.059,-328.125,617.188
1612999606.153,911.133,645.508,-729.980,-1000.000
1612999606.157,787.109,793.457,-820.312,-583.984
1612999606.161,-768.555,-758.301,-331.543,948.730
1612999606.165,-1000.000,-1000.000,-167.969,-909.180
1612999606.168,119.141,-145.020,-617.188,-266.113
1612999606.172,-818.359,-865.723,-841.309,-1000.000
1612999606.176,-109.863,-55.176,-546.875,249.023
1612999606.180,-1000.000,-1000.000,-293.457,-759.766
1612999606.184,-228.027,-264.648,-475.586,187.012
1612999606.186,-824.219,-843.262,-830.566,-1000.000
1612999606.190,241.211,248.047,-705.566,-269.043
1612999606.194,-1000.000,-1000.000,-322.754,-794.434
1612999606.198,-408.203,-678.711,-374.512,262.695
1612999606.202,-860.352,970.215,-745.117,-1000.000
1612999606.206,425.293,443.359,-770.996,-269.531
1612999606.210,-1000.000,-1000.000,-358.398,-854.492
1612999606.213,-901.855,-1000.000,-299.805,733.887
1612999606.217,660.156,255.371,-624.023,-902.832
1612999606.221,934.082,949.219,-802.246,-695.801
1612999606.225,-597.168,-566.895,-537.598,875.977
1612999606.229,-1000.000,-1000.000,-296.387,-868.164
1612999606.231,7.324,-193.359,-549.805,-135.742
1612999606.235,-809.570,-854.980,-873.047,-1000.000
1612999606.239,3.418,62.988,-644.531,109.863
1612999606.243,-1000.000,-1000.000,-271.973,-753.906
1612999606.247,-237.305,-331.055,-388.672,192.871
1612999606.251,-820.312,-858.887,-788.086,-1000.000
1612999606.255,242.676,256.836,-739.746,-273.926
1612999606.258,-1000.000,-1000.000,-278.320,-799.805
1612999606.262,-473.633,-730.469,-224.121,373.535
1612999606.266,-893.555,943.848,-718.750,-1000.000
1612999606.270,533.203,552.246,-830.078,-375.488
1612999606.274,-1000.000,-970.215,-323.242,-914.062
1612999606.276,-1000.000,-1000.000,-149.414,868.164
1612999606.280,479.492,125.000,-640.625,-716.309
1612999606.284,-945.312,-938.965,-873.535,-846.191
1612999606.288,-414.551,-370.117,-486.816,721.191
1612999606.292,-1000.000,-1000.000,-209.473,-824.707
1612999606.296,-106.445,-210.938,-502.930,-30.273
1612999606.300,-810.547,-841.309,-868.164,-1000.000
1612999606.303,118.652,185.547,-565.430,22.461
1612999606.307,-1000.000,-1000.000,-125.488,-754.883
1612999606.311,-248.047,-422.363,-374.023,198.730
1612999606.315,-818.359,-877.930,-792.480,-1000.000
1612999606.319,242.188,250.000,-730.469,-276.855
1612999606.323,-1000.000,-1000.000,-297.852,-812.500
1612999606.327,-630.859,-940.918,-289.062,517.090
1612999606.331,-987.305,634.277,-699.707,-1000.000
1612999606.335,617.676,666.504,-812.012,-484.375
1612999606.339,-936.035,-905.273,-421.387,-980.957
1612999606.343,-1000.000,-1000.000,-223.145,996.094
1612999606.347,227.539,-20.020,-547.852,-488.770
1612999606.350,-838.867,-882.324,-806.641,-1000.000
1612999606.354,-220.215,-204.102,-559.082,509.277
1612999606.358,-1000.000,-1000.000,-275.879,-787.109
1612999606.362,-220.215,-217.773,-473.633,69.336
1612999606.366,-823.730,-834.961,-837.891,-1000.000
1612999606.366,234.375,235.840,-687.012,-106.934
1612999606.370,-1000.000,-1000.000,-297.363,-767.578
1612999606.374,-264.160,-528.809,-373.047,210.449
1612999606.378,-809.570,-918.945,-769.043,-1000.000
1612999606.382,301.270,316.895,-748.047,-275.391
1612999606.386,-1000.000,-1000.000,-321.777,-825.684
1612999606.390,-658.691,-1000.000,-147.461,603.516
1612999606.393,964.355,468.262,-531.738,-1000.000
1612999606.397,770.996,806.152,-853.516,-581.055
1612999606.401,-762.695,-760.742,-456.055,946.289
1612999606.405,-1000.000,-1000.000,-206.543,-903.320
1612999606.409,119.629,-122.559,-544.434,-279.297
1612999606.411,-818.359,-863.281,-885.742,-1000.000
1612999606.415,-109.863,-71.289,-588.867,320.312
1612999606.419,-1000.000,-1000.000,-241.211,-763.672
1612999606.423,-228.027,-254.883,-453.125,184.082
1612999606.427,-822.754,-840.820,-841.797,-1000.000
1612999606.431,239.746,247.559,-677.246,-253.418
1612999606.435,-1000.000,-1000.000,-72.266,-791.504
1612999606.438,-368.652,-657.715,-188.965,226.074
1612999606.442,-845.215,988.770,-804.199,-1000.000
1612999606.446,421.875,438.477,-748.535,-271.484
1612999606.450,-1000.000,-1000.000,-288.574,-832.031
1612999606.454,-794.922,-1000.000,-298.828,628.418
1612999606.457,798.340,311.523,-693.359,-1000.000
1612999606.461,916.992,943.359,-839.844,-669.434
1612999606.465,-601.074,-579.590,-484.863,886.719
1612999606.469,-1000.000,-1000.000,-270.996,-882.324
1612999606.473,60.547,-174.316,-554.688,-193.848
1612999606.477,-802.246,-849.609,-848.633,-1000.000
1612999606.481,-2.441,60.059,-604.980,140.137
1612999606.484,-1000.000,-1000.000,-241.211,-755.371
1612999606.488,-237.793,-312.988,-391.602,190.918
1612999606.492,-820.312,-849.609,-780.762,-1000.000
1612999606.496,242.188,246.582,-724.121,-272.461
1612999606.500,-1000.000,-1000.000,-346.191,-798.828
1612999606.517,-467.773,-782.227,-351.562,333.496
1612999606.521,-889.160,856.934,-718.262,-1000.000
1612999606.525,511.719,542.480,-804.199,-371.582
1612999606.529,-1000.000,-979.004,-416.992,-907.715
1612999606.533,-997.559,-1000.000,-275.391,833.984
1612999606.537,497.070,132.812,-612.793,-763.672
1612999606.541,-953.613,-972.656,-854.004,-836.426
1612999606.544,-425.293,-428.711,-544.434,726.562
1612999606.548,-1000.000,-1000.000,-204.590,-828.125
1612999606.552,-106.445,-207.520,-417.969,-43.457
1612999606.556,-811.035,-844.238,-860.352,-1000.000
1612999606.560,118.652,160.156,-658.691,20.020
1612999606.562,-1000.000,-1000.000,-230.469,-756.348
1612999606.566,-248.047,-392.090,-350.586,199.707
1612999606.570,-816.406,-868.652,-799.316,-1000.000
1612999606.574,242.188,251.465,-774.414,-275.391
1612999606.578,-1000.000,-1000.000,-242.188,-805.664
1612999606.582,-561.035,-882.812,-199.707,434.082
1612999606.586,-945.312,717.285,-716.797,-1000.000
1612999606.589,612.305,646.973,-815.918,-475.586
1612999606.593,-945.801,-915.527,-375.488,-968.262
1612999606.597,-1000.000,-1000.000,-252.930,937.012
1612999606.601,317.871,10.742,-644.531,-597.168
1612999606.605,-844.727,-889.648,-876.953,-971.680
1612999606.607,-222.168,-236.816,-494.141,556.641
1612999606.611,-1000.000,-1000.000,-186.035,-796.387
1612999606.615,-220.215,-215.820,-502.930,53.223
1612999606.619,-823.730,-835.938,-844.727,-1000.000
1612999606.623,233.887,226.074,-650.391,-96.680
1612999606.627,-1000.000,-1000.000,-259.277,-767.090
1612999606.631,-265.625,-498.535,-362.793,209.473
1612999606.634,-809.082,-904.785,-752.930,-1000.000
1612999606.638,330.566,319.336,-697.266,-275.391
1612999606.642,-1000.000,-1000.000,-371.094,-816.406
1612999606.646,-655.762,-1000.000,-357.422,529.297
1612999606.650,978.027,514.648,-707.031,-1000.000
1612999606.651,759.277,778.809,-835.449,-571.777
1612999606.655,-781.250,-790.527,-458.008,955.566
1612999606.659,-1000.000,-1000.000,-266.602,-943.359
1612999606.663,156.738,-111.816,-580.078,-371.582
1612999606.667,-815.918,-863.770,-865.723,-1000.000
1612999606.671,-113.281,-90.332,-560.059,368.164
1612999606.675,-1000.000,-1000.000,-228.027,-769.531
1612999606.678,-228.027,-234.375,-383.789,162.109
1612999606.682,-822.754,-834.961,-767.090,-1000.000
1612999606.686,239.746,245.117,-721.191,-230.469
1612999606.690,-1000.000,-1000.000,-294.922,-787.598
1612999606.694,-366.699,-633.789,-312.012,223.633
1612999606.697,-843.262,-989.746,-753.906,-1000.000
1612999606.701,365.723,402.832,-809.570,-272.461
1612999606.705,-1000.000,-1000.000,-350.098,-829.590
1612999606.709,-785.645,-1000.000,-239.746,617.188
1612999606.713,797.363,300.293,-652.344,-1000.000
1612999606.717,904.785,914.062,-841.309,-665.527
1612999606.721,-606.934,-621.094,-443.848,882.324
1612999606.724,-1000.000,-1000.000,-69.336,-875.000
1612999606.728,6.836,-184.082,-471.680,-178.223
1612999606.732,-809.570,-859.863,-916.016,-1000.000
1612999606.736,2.930,25.391,-565.430,167.480
1612999606.740,-1000.000,-1000.000,-188.477,-751.465
1612999606.741,-237.305,-306.641,-441.406,188.965
1612999606.745,-817.871,-851.074,-829.102,-1000.000
1612999606.749,240.234,253.418,-700.684,-270.508
1612999606.753,-1000.000,-1000.000,-318.359,-798.828
1612999606.757,-416.992,-677.734,-348.633,302.246
1612999606.761,-871.094,964.355,-732.422,-1000.000
1612999606.765,535.156,573.730,-749.512,-374.512
1612999606.768,-1000.000,-963.867,-312.500,-886.719
1612999606.772,-895.996,-1000.000,-290.527,747.070
1612999606.776,652.832,243.164,-669.922,-875.000
1612999606.780,-964.355,-967.285,-854.492,-821.777
1612999606.784,-416.992,-435.059,-539.551,727.539
1612999606.802,-1000.000,-1000.000,-262.695,-833.984
1612999606.806,-77.637,-206.055,-499.023,-81.055
1612999606.810,-805.176,-847.656,-849.121,-1000.000
1612999606.814,114.746,135.742,-652.344,58.594
1612999606.818,-1000.000,-1000.000,-294.922,-753.906
1612999606.822,-248.535,-407.715,-373.535,195.801
1612999606.826,-817.383,-878.418,-755.371,-1000.000
1612999606.829,242.188,246.094,-753.906,-275.879
1612999606.833,-1000.000,-1000.000,-373.535,-807.617
1612999606.837,-600.586,-936.523,-305.664,452.637
1612999606.841,-963.379,646.973,-667.480,-1000.000
1612999606.845,555.176,629.395,-824.219,-484.863
1612999606.831,-1000.000,-942.871,-435.547,-951.172
1612999606.835,-1000.000,-1000.000,-263.184,884.766
1612999606.839,403.809,32.715,-607.422,-658.203
1612999606.843,-843.262,-873.047,-870.605,-1000.000
1612999606.847,-232.910,-210.449,-555.176,510.254
1612999606.851,-1000.000,-1000.000,-189.453,-803.711
1612999606.855,-119.141,-217.773,-424.316,-33.691
1612999606.858,-796.875,-835.938,-854.004,-1000.000
1612999606.862,219.727,226.074,-705.078,-90.332
1612999606.866,-1000.000,-1000.000,-143.555,-774.414
1612999606.870,-262.695,-524.902,-191.406,211.914
1612999606.874,-810.547,-919.922,-808.594,-1000.000
1612999606.892,239.746,278.809,-761.719,-275.391
1612999606.896,-1000.000,-1000.000,-302.246,-816.895
1612999606.900,-645.020,-1000.000,-304.199,528.809
1612999606.904,983.887,468.262,-706.543,-1000.000
1612999606.908,703.125,753.418,-827.637,-579.590
1612999606.912,-859.375,-828.125,-397.461,973.633
1612999606.916,-1000.000,-1000.000,-195.312,-995.605
1612999606.919,217.285,-82.031,-588.867,-470.703
1612999606.923,-812.012,-857.910,-857.910,-1000.000
1612999606.927,-118.652,-100.098,-472.656,378.906
1612999606.931,-1000.000,-1000.000,-202.637,-774.902
1612999606.935,-228.516,-223.145,-473.145,122.070
1612999606.937,-822.754,-831.543,-836.914,-1000.000
1612999606.941,239.746,244.141,-690.918,-198.242
1612999606.945,-1000.000,-1000.000,-321.777,-783.691
1612999606.949,-365.723,-622.559,-382.324,220.703
1612999606.953,-842.773,-979.492,-747.070,-1000.000
1612999606.957,346.191,381.836,-769.043,-273.438
1612999606.961,-1000.000,-1000.000,-346.191,-830.078
1612999606.964,-786.133,-1000.000,-286.133,617.188
1612999606.968,805.176,351.074,-640.625,-1000.000
1612999606.972,870.605,880.859,-780.762,-671.875
1612999606.976,-674.316,-667.969,-486.816,894.043
1612999606.980,-1000.000,-1000.000,-270.020,-895.508
1612999606.981,110.352,-156.250,-540.039,-261.719
1612999606.985,-800.293,-857.422,-875.000,-1000.000
1612999606.989,-22.949,-8.301,-626.953,187.988
1612999606.993,-1000.000,-1000.000,-252.930,-755.859
1612999606.997,-236.816,-282.715,-408.691,187.988
1612999607.001,-818.848,-845.215,-801.270,-1000.000
1612999607.005,240.234,249.512,-722.168,-270.508
1612999607.008,-1000.000,-1000.000,-267.090,-797.852
1612999607.012,-411.133,-690.918,-204.590,300.781
1612999607.016,-861.816,959.961,-723.633,-1000.000
1612999607.020,438.965,480.469,-837.402,-349.609
1612999607.024,-1000.000,-998.535,-343.750,-881.836
1612999607.028,-922.852,-1000.000,-201.172,757.324
1612999607.032,638.184,172.852,-643.555,-856.934
1612999607.036,932.129,955.078,-888.672,-825.684
1612999607.040,-589.844,-544.434,-433.594,729.004
1612999607.044,-1000.000,-1000.000,-147.461,-833.496
1612999607.048,-71.777,-200.195,-545.410,-87.891
1612999607.052,-820.312,-854.492,-896.484,-1000.000
1612999607.055,40.039,81.543,-549.316,71.289
1612999607.059,-1000.000,-1000.000,-155.762,-752.930
1612999607.063,-239.258,-352.051,-437.988,194.824
1612999607.067,-821.777,-862.305,-825.195,-1000.000
1612999607.071,243.652,246.582,-746.582,-275.391
1612999607.072,-1000.000,-1000.000,-353.516,-803.711
1612999607.076,-561.035,-856.934,-372.070,418.457
1612999607.080,-938.477,759.766,-742.188,-1000.000
1612999607.084,546.875,578.613,-808.105,-439.453
1612999607.088,-1000.000,-965.332,-415.527,-933.105
1612999607.092,-1000.000,-1000.000,-289.062,866.699
1612999607.096,438.477,86.914,-632.324,-686.523
1612999607.099,-940.430,-925.293,-792.969,-967.285
1612999607.103,-414.551,-333.496,-516.602,564.941
1612999607.107,-1000.000,-1000.000,-293.945,-806.641
1612999607.111,-106.445,-209.961,-524.902,-39.062
1612999607.115,-810.547,-844.238,-864.258,-1000.000
1612999607.117,118.652,179.688,-682.617,-35.156
1612999607.121,-1000.000,-1000.000,-277.344,-763.672
1612999607.125,-248.047,-504.395,-380.859,205.078
1612999607.129,-818.848,-917.969,-809.570,-1000.000
1612999607.133,242.188,255.371,-780.762,-275.879
1612999607.137,-1000.000,-1000.000,-256.348,-814.453
1612999607.141,-649.414,-993.652,-113.281,505.859
1612999607.144,-995.605,544.922,-607.422,-1000.000
1612999607.148,595.703,669.434,-865.234,-568.359
1612999607.152,-945.312,-901.855,-402.832,979.004
1612999607.156,-1000.000,-1000.000,-125.977,992.676
1612999607.160,180.176,-66.895,-594.238,-486.816
1612999607.162,-841.797,-895.996,-921.387,-1000.000
1612999607.166,-216.309,-206.543,-578.613,382.324
1612999607.170,-1000.000,-1000.000,-187.500,-775.879
1612999607.174,-219.727,-215.820,-472.168,74.219
1612999607.178,-828.613,-836.914,-892.578,-1000.000
1612999607.182,240.723,234.375,-687.988,-150.879
1612999607.186,-1000.000,-1000.000,-113.770,-775.879
1612999607.189,-363.281,-567.871,-264.160,215.820
1612999607.193,-843.262,-940.918,-834.961,-1000.000
1612999607.197,306.152,339.844,-759.277,-274.414
1612999607.201,-1000.000,-1000.000,-295.898,-827.637
1612999607.205,-763.672,-1000.000,-289.551,606.445
1612999607.206,846.191,461.426,-704.102,-1000.000
1612999607.210,793.945,845.703,-833.008,-625.000
1612999607.214,-767.578,-711.426,-445.312,917.969
1612999607.218,-1000.000,-1000.000,-208.984,-898.926
1612999607.222,119.141,-135.742,-543.945,-238.281
1612999607.226,-818.359,-857.910,-848.633,-1000.000
1612999607.230,-110.352,-40.039,-568.848,186.523
1612999607.233,-1000.000,-1000.000,-141.602,-754.395
1612999607.237,-228.027,-250.000,-358.398,187.988
1612999607.241,-822.754,-835.449,-806.641,-1000.000
1612999607.245,239.746,247.559,-694.824,-268.066
1612999607.249,-1000.000,-1000.000,-239.258,-794.922
1612999607.266,-369.629,-618.652,-276.367,254.395
1612999607.270,-846.191,-979.004,-732.422,-1000.000
1612999607.274,439.941,467.285,-802.734,-280.273
1612999607.278,-1000.000,-1000.000,-338.867,-843.262
1612999607.282,-852.051,-1000.000,-201.172,695.801
1612999607.286,746.094,369.629,-632.324,-954.102
1612999607.290,922.852,961.914,-840.820,-752.441
1612999607.293,-597.168,-536.133,-499.023,810.547
1612999607.297,-1000.000,-1000.000,-156.250,-861.328
1612999607.301,5.371,-179.688,-435.059,-147.461
1612999607.305,-807.129,-844.238,-872.070,-1000.000
1612999607.309,20.508,84.961,-642.090,91.309
1612999607.312,-1000.000,-1000.000,-175.293,-755.859
1612999607.316,-239.746,-303.223,-328.125,194.336
1612999607.320,-819.824,-842.773,-810.059,-1000.000
1612999607.324,242.676,244.141,-734.863,-275.879
1612999607.328,-1000.000,-1000.000,-149.902,-801.758
1612999607.332,-491.699,-778.809,-135.254,430.176
1612999607.336,-901.855,859.375,-708.496,-1000.000
1612999607.339,532.715,561.523,-810.547,-379.395
1612999607.343,-1000.000,-966.797,-209.473,-926.758
1612999607.347,-1000.000,-1000.000,-19.531,923.340
1612999607.351,437.500,108.887,-629.883,-621.582
1612999607.355,-937.988,-933.105,-860.352,-884.766
1612999607.356,-419.434,-355.957,-516.602,689.453
1612999607.360,-1000.000,-1000.000,-236.328,-822.754
1612999607.364,-75.684,-213.867,-501.465,-37.109
1612999607.368,-795.898,-833.496,-857.910,-1000.000
1612999607.372,215.332,215.332,-629.395,-35.156
1612999607.376,-1000.000,-1000.000,-178.711,-763.672
1612999607.380,-263.184,-333.496,-325.195,205.078
1612999607.383,-808.594,-836.426,-760.254,-1000.000
1612999607.387,239.746,279.297,-630.859,-276.367
1612999607.391,-1000.000,-1000.000,-249.023,-812.988
1612999607.395,-561.035,-846.680,-300.293,521.484
1612999607.399,-948.242,767.090,-705.566,-1000.000
1612999607.401,631.348,688.965,-818.359,-485.352
1612999607.405,-944.824,-870.117,-417.969,-981.445
1612999607.409,-1000.000,-1000.000,-255.371,999.512
1612999607.413,365.723,24.414,-603.516,-498.047
1612999607.417,-848.145,-869.629,-858.887,-977.539
1612999607.421,-221.680,-195.801,-529.297,547.852
1612999607.425,-1000.000,-1000.000,-177.246,-780.762
1612999607.428,-202.148,-200.195,-377.930,121.582
1612999607.432,-879.883,-891.113,-772.949,-1000.000
1612999607.436,145.996,145.996,-660.645,-40.527
1612999607.440,-1000.000,-1000.000,-246.094,-775.391
1612999607.444,-263.184,-536.621,-316.406,210.449
1612999607.446,-812.500,-926.758,-751.953,-1000.000
1612999607.450,286.621,318.848,-778.809,-274.902
1612999607.454,-1000.000,-1000.000,-324.219,-827.637
1612999607.458,-647.949,-994.629,-261.230,617.188
1612999607.462,971.680,517.578,-684.570,-1000.000
1612999607.466,772.461,814.453,-827.148,-583.008
1612999607.470,-768.066,-749.023,-388.184,945.312
1612999607.473,-1000.000,-1000.000,-48.340,-898.438
1612999607.477,155.762,-103.516,-478.516,-276.855
1612999607.481,-808.594,-845.703,-892.578,-1000.000
1612999607.485,-131.836,-80.566,-556.641,376.953
1612999607.489,-1000.000,-1000.000,-229.492,-821.289
1612999607.493,-140.137,-138.184,-441.406,94.238
1612999607.497,-833.496,-839.844,-819.336,-1000.000
1612999607.501,239.746,243.652,-658.203,-252.441
1612999607.505,-1000.000,-1000.000,-234.863,-790.527
1612999607.509,-368.164,-631.836,-334.473,311.523
1612999607.513,-843.750,-987.305,-739.746,-1000.000
1612999607.517,397.949,426.758,-709.961,-277.344
1612999607.520,-1000.000,-1000.000,-245.117,-854.980
1612999607.524,-850.586,-1000.000,-277.832,753.906
1612999607.528,720.215,291.016,-678.711,-882.324
1612999607.532,925.781,933.105,-828.125,-692.383
1612999607.536,-595.703,-592.773,-496.582,883.301
1612999607.536,-1000.000,-1000.000,-277.832,-859.863
1612999607.540,38.574,-158.691,-557.129,-161.133
1612999607.544,-863.770,-904.297,-846.680,-1000.000
1612999607.548,-86.426,-28.320,-591.309,238.770
1612999607.552,-1000.000,-1000.000,-249.023,-761.719
1612999607.556,-237.793,-268.555,-386.230,189.453
1612999607.560,-822.754,-835.449,-719.238,-1000.000
1612999607.563,242.188,243.164,-682.617,-274.414
1612999607.567,-1000.000,-1000.000,-335.938,-800.293
1612999607.571,-468.262,-716.309,-289.062,386.230
1612999607.575,-892.578,929.199,-682.129,-1000.000
1612999607.579,541.016,544.922,-808.105,-376.465
1612999607.582,-1000.000,-976.562,-396.973,-917.480
1612999607.586,-926.758,-1000.000,-212.891,884.766
1612999607.590,608.887,170.410,-581.055,-694.336
1612999607.594,-947.754,-934.082,-854.004,-853.516
1612999607.598,-441.406,-402.344,-504.395,745.117
1612999607.602,-1000.000,-1000.000,-112.793,-878.906
1612999607.606,60.547,-122.559,-402.832,-131.836
1612999607.609,-806.641,-851.074,-841.309,-1000.000
1612999607.613,108.887,181.641,-650.879,64.453
1612999607.617,-1000.000,-1000.000,-53.711,-752.441
1612999607.621,-249.512,-382.812,-123.047,194.336
1612999607.625,-816.406,-862.305,-801.758,-1000.000
1612999607.641,242.188,249.512,-736.328,-277.832
1612999607.645,-1000.000,-1000.000,-241.699,-812.988
1612999607.649,-561.035,-831.543,-242.188,527.344
1612999607.653,-949.219,770.996,-701.172,-1000.000
1612999607.657,636.230,694.336,-790.527,-487.793
1612999607.661,-955.566,-880.859,-321.289,-977.051
1612999607.665,-1000.000,-1000.000,-176.270,986.816
1612999607.668,422.363,107.422,-600.098,-517.578
1612999607.672,-846.680,-850.586,-824.219,-976.562
1612999607.676,-232.422,-188.477,-444.336,550.293
1612999607.680,-1000.000,-1000.000,-179.199,-785.156
1612999607.684,-126.465,-221.191,-467.773,113.281
1612999607.686,-798.828,-831.055,-798.828,-1000.000
1612999607.690,222.168,236.328,-601.074,-57.129
1612999607.694,-1000.000,-1000.000,-258.301,-745.605
1612999607.698,-250.000,-443.848,-347.656,183.594
1612999607.702,-865.234,-941.895,-733.398,-1000.000
1612999607.706,250.488,232.422,-726.074,-187.988
1612999607.710,-1000.000,-1000.000,-248.535,-837.891
1612999607.713,-656.738,-979.492,-186.523,617.188
1612999607.717,971.680,556.641,-607.910,-1000.000
1612999607.721,775.879,789.551,-761.719,-572.754
1612999607.725,-776.855,-778.809,-429.199,950.195
1612999607.729,-1000.000,-1000.000,-199.219,-899.414
1612999607.733,220.703,-74.219,-519.531,-278.809
1612999607.737,-811.035,-852.539,-856.445,-1000.000
1612999607.741,-118.652,-87.402,-577.148,369.141
1612999607.745,-1000.000,-1000.000,-216.309,-760.742
1612999607.749,-228.516,-225.098,-390.137,175.293
1612999607.753,-822.754,-830.078,-810.059,-1000.000
1612999607.757,239.746,245.117,-690.430,-170.898
1612999607.760,-1000.000,-1000.000,-222.656,-766.602
1612999607.764,-368.652,-588.379,-226.074,296.387
1612999607.768,-844.727,-952.148,-737.305,-1000.000
1612999607.772,410.645,423.340,-801.270,-278.809
1612999607.776,-1000.000,-1000.000,-342.285,-854.492
1612999607.777,-762.695,-1000.000,-278.809,753.906
1612999607.781,828.613,422.852,-679.199,-886.230
1612999607.785,914.551,943.359,-852.539,-663.574
1612999607.789,-605.469,-581.055,-426.270,894.043
1612999607.793,-1000.000,-1000.000,-187.988,-860.352
1612999607.797,109.863,-149.414,-529.297,-93.750
1612999607.801,-795.898,-843.750,-863.770,-1000.000
1612999607.804,-7.324,39.062,-477.539,172.852
1612999607.808,-1000.000,-1000.000,61.523,-745.117
1612999607.812,-238.770,-263.184,-319.336,186.523
1612999607.816,-817.871,-832.520,-819.824,-1000.000
1612999607.820,240.234,245.605,-697.266,-272.949
1612999607.822,-1000.000,-1000.000,-277.344,-797.852
1612999607.826,-414.551,-666.504,-290.039,333.008
1612999607.830,-863.281,982.422,-708.984,-1000.000
1612999607.834,445.801,497.559,-773.926,-356.445
1612999607.838,-1000.000,-986.816,-376.953,-912.598
1612999607.842,-946.289,-1000.000,-234.863,865.234
1612999607.846,584.473,157.227,-587.891,-719.238
1612999607.849,981.934,999.512,-759.277,-843.750
1612999607.853,-532.715,-477.539,-469.727,727.051
1612999607.857,-1000.000,-1000.000,-316.406,-824.707
1612999607.861,-18.066,-206.055,-543.457,-52.246
1612999607.865,-796.875,-845.215,-833.496,-1000.000
1612999607.866,107.422,143.555,-647.461,67.383
1612999607.870,-1000.000,-1000.000,-302.246,-750.488
1612999607.874,-249.512,-346.191,-416.992,194.336
1612999607.878,-815.430,-853.027,-799.316,-1000.000
1612999607.882,241.699,247.070,-742.676,-276.367
1612999607.886,-1000.000,-1000.000,-301.758,-807.129
1612999607.890,-534.180,-810.547,-221.680,450.684
1612999607.893,-934.082,812.012,-618.164,-1000.000
1612999607.897,620.117,643.066,-823.730,-484.375
1612999607.901,-962.891,-922.852,-405.273,-952.148
1612999607.905,-1000.000,-1000.000,-175.781,889.160
1612999607.909,432.129,104.980,-571.289,-670.410
1612999607.912,-847.656,-867.676,-878.418,-965.332
1612999607.916,-232.910,-228.516,-520.996,558.594
1612999607.920,-1000.000,-1000.000,-195.801,-797.852
1612999607.924,-119.141,-218.262,-476.074,22.461
1612999607.928,-796.875,-834.473,-854.980,-1000.000
1612999607.932,219.727,224.609,-645.996,-42.969
1612999607.936,-1000.000,-1000.000,-106.934,-759.277
1612999607.939,-262.695,-476.562,-265.137,204.102
1612999607.943,-811.035,-895.020,-817.871,-1000.000
1612999607.947,239.258,289.062,-730.469,-276.367
1612999607.951,-1000.000,-1000.000,-325.684,-818.848
1612999607.955,-643.555,-958.984,-336.914,548.340
1612999607.973,978.516,589.355,-701.172,-1000.000
1612999607.977,726.074,753.418,-774.414,-567.871
1612999607.981,-833.984,-819.336,-398.438,953.613
1612999607.985,-1000.000,-1000.000,-270.508,-927.246
1612999607.989,219.727,-62.500,-573.730,-340.820
1612999607.993,-813.477,-856.934,-850.098,-1000.000
1612999607.997,-126.465,-116.211,-556.152,371.094
1612999608.000,-1000.000,-1000.000,-216.309,-763.672
1612999608.004,-228.027,-222.168,-438.965,175.293
1612999608.008,-820.801,-831.543,-819.824,-1000.000
1612999608.012,236.816,245.605,-678.223,-165.527
1612999608.016,-1000.000,-1000.000,-321.777,-768.555
1612999608.016,-320.312,-569.824,-369.629,213.379
1612999608.020,-827.148,-937.500,-742.676,-1000.000
1612999608.024,338.867,382.812,-772.949,-266.602
1612999608.028,-1000.000,-1000.000,-365.723,-857.910
1612999608.032,-793.945,-1000.000,-283.691,740.723
1612999608.036,825.195,357.910,-631.836,-900.879
1612999608.040,798.340,875.977,-820.801,-676.758
1612999608.043,-769.531,-674.805,-485.352,893.555
1612999608.047,-1000.000,-1000.000,-204.590,-870.117
1612999608.051,107.910,-153.809,-433.594,-159.180
1612999608.055,-800.781,-853.027,-837.402,-1000.000
1612999608.059,-17.090,2.930,-638.184,179.199
1612999608.061,-1000.000,-1000.000,-237.793,-750.000
1612999608.065,-239.258,-260.254,-394.531,188.965
1612999608.069,-813.477,-833.496,-823.242,-1000.000
1612999608.073,223.633,238.770,-726.074,-254.395
1612999608.077,-1000.000,-1000.000,-288.086,-852.539
1612999608.081,-365.234,-641.602,-312.988,242.676
1612999608.085,-891.113,975.586,-720.703,-1000.000
1612999608.088,446.777,478.516,-804.199,-335.938
1612999608.092,-1000.000,-1000.000,-245.117,-875.488
1612999608.096,-920.410,-1000.000,-32.227,753.906
1612999608.100,633.789,204.102,-625.488,-855.469
1612999608.104,947.754,984.863,-858.398,-826.660
1612999608.107,-582.031,-507.324,-502.441,729.492
1612999608.111,-1000.000,-1000.000,-332.031,-834.961
1612999608.115,-2.930,-200.195,-600.098,-92.285
1612999608.119,-796.387,-848.633,-860.840,-1000.000
1612999608.123,99.609,112.305,-625.488,71.777
1612999608.127,-1000.000,-1000.000,-241.211,-752.930
1612999608.131,-249.023,-359.863,-410.156,194.824
1612999608.134,-816.895,-861.328,-790.039,-1000.000
1612999608.138,242.188,244.141,-673.340,-276.367
1612999608.142,-1000.000,-1000.000,-310.547,-806.152
1612999608.146,-561.035,-880.859,-340.332,445.801
1612999608.150,-938.477,727.051,-697.754,-1000.000
1612999608.152,546.875,598.145,-763.672,-460.938
1612999608.156,-1000.000,-954.102,-449.219,-946.777
1612999608.160,-1000.000,-1000.000,-325.195,896.484
1612999608.164,436.035,62.500,-625.977,-650.879
1612999608.168,-935.059,-919.434,-860.840,-971.680
1612999608.172,-404.297,-315.918,-527.344,564.941
1612999608.176,-1000.000,-1000.000,-221.191,-805.176
1612999608.179,-115.234,-213.379,-432.617,-34.180
1612999608.183,-803.223,-837.891,-798.828,-1000.000
1612999608.187,219.727,213.867,-675.781,-35.645
1612999608.191,-1000.000,-1000.000,-285.645,-763.184
1612999608.195,-262.695,-445.801,-369.629,205.078
1612999608.198,-809.082,-883.789,-771.973,-1000.000
1612999608.202,239.746,280.273,-769.531,-276.367
1612999608.206,-1000.000,-1000.000,-335.938,-814.941
1612999608.210,-579.102,-916.992,-270.020,528.320
1612999608.214,-957.031,660.645,-697.754,-1000.000
1612999608.218,625.000,717.285,-815.918,-522.949
1612999608.222,-920.410,-847.168,-396.484,986.328
1612999608.225,-1000.000,-1000.000,-106.445,-965.332
1612999608.229,229.004,-49.316,-518.555,-392.090
1612999608.233,-839.355,-872.559,-897.461,-1000.000
1612999608.237,-220.215,-164.062,-519.531,375.488
1612999608.241,-1000.000,-1000.000,-199.707,-768.066
1612999608.242,-220.215,-219.727,-476.562,138.184
1612999608.246,-823.730,-831.055,-847.168,-1000.000
1612999608.250,233.887,244.629,-662.109,-159.668
1612999608.254,-1000.000,-1000.000,-245.117,-771.484
1612999608.258,-270.020,-485.840,-331.543,213.867
1612999608.262,-811.523,-896.484,-762.207,-1000.000
1612999608.266,435.547,430.664,-721.680,-274.414
1612999608.269,-1000.000,-1000.000,-209.961,-821.289
1612999608.273,-641.602,-949.219,-270.020,552.734
1612999608.277,962.402,599.609,-709.961,-1000.000
1612999608.281,889.648,893.555,-828.125,-644.043
1612999608.285,-604.492,-634.766,-469.238,897.461
1612999608.287,-1000.000,-1000.000,-260.254,-895.508
1612999608.291,157.715,-110.352,-565.918,-263.184
1612999608.295,-800.293,-848.145,-846.191,-1000.000
1612999608.299,-50.781,-30.273,-603.027,208.008
1612999608.303,-1000.000,-1000.000,-272.949,-756.836
1612999608.307,-234.863,-258.789,-406.250,187.500
1612999608.311,-822.266,-838.379,-765.625,-1000.000
1612999608.314,242.676,245.117,-696.289,-272.949
1612999608.318,-1000.000,-1000.000,-334.961,-793.945
1612999608.322,-457.520,-704.590,-318.359,328.125
1612999608.326,-881.836,947.266,-671.875,-1000.000
1612999608.330,448.242,461.426,-796.387,-287.109
1612999608.336,-1000.000,-1000.000,-378.906,-856.445
1612999608.340,-907.715,-1000.000,-267.090,748.535
1612999608.344,655.273,245.605,-651.367,-859.375
1612999608.348,934.082,974.609,-863.281,-793.945
1612999608.352,-598.145,-530.762,-505.371,778.320
1612999608.356,-1000.000,-1000.000,-145.508,-854.004
1612999608.360,-1.953,-187.012,-443.359,-149.902
1612999608.363,-798.340,-844.727,-869.629,-1000.000
1612999608.367,89.355,94.727,-644.043,78.125
1612999608.371,-1000.000,-1000.000,-118.164,-756.836
1612999608.375,-248.047,-300.781,-258.789,195.801
1612999608.379,-815.430,-840.820,-832.031,-1000.000
1612999608.391,241.211,241.211,-720.703,-275.879
1612999608.395,-1000.000,-1000.000,-256.348,-801.758
1612999608.399,-502.930,-811.523,-298.828,430.176
1612999608.403,-908.691,820.801,-731.445,-1000.000
1612999608.407,539.551,577.148,-801.270,-384.277
1612999608.411,-1000.000,-964.355,-362.793,-913.086
1612999608.415,-1000.000,-1000.000,-219.727,877.441
1612999608.418,487.793,123.535,-630.371,-679.199
1612999608.422,-946.777,-938.965,-834.961,-906.738
1612999608.426,-413.574,-369.141,-454.590,634.766
1612999608.430,-1000.000,-1000.000,-257.812,-806.641
1612999608.434,-117.676,-209.961,-535.645,47.363
1612999608.436,-813.965,-842.773,-812.988,-1000.000
1612999608.440,120.117,180.176,-610.352,-45.898
1612999608.444,-1000.000,-1000.000,-309.082,-757.812
1612999608.448,-247.559,-441.406,-424.316,203.613
1612999608.452,-816.406,-888.184,-778.320,-1000.000
1612999608.456,242.188,271.484,-737.305,-274.902
1612999608.460,-1000.000,-1000.000,-304.688,-808.594
1612999608.463,-561.035,-858.887,-299.316,451.172
1612999608.467,-946.289,735.840,-669.434,-1000.000
1612999608.471,625.000,702.637,-776.855,-512.695
1612999608.475,-928.711,-856.934,-463.379,993.164
1612999608.479,-1000.000,-1000.000,-306.641,-999.023
1612999608.482,280.762,-1.465,-625.977,-478.027
1612999608.486,-842.773,-878.418,-872.559,-1000.000
1612999608.490,-221.191,-203.613,-580.078,441.895
1612999608.494,-1000.000,-1000.000,-256.836,-782.227
1612999608.498,-220.215,-217.773,-458.008,74.219
1612999608.502,-825.195,-836.426,-828.613,-1000.000
1612999608.506,235.840,232.422,-697.266,-150.879
1612999608.509,-1000.000,-1000.000,-284.668,-775.879
1612999608.513,-291.016,-564.453,-298.828,215.820
1612999608.517,-819.824,-939.941,-767.578,-1000.000
1612999608.521,286.621,313.477,-784.668,-274.414
1612999608.525,-1000.000,-1000.000,-297.852,-820.801
1612999608.527,-645.996,-1000.000,-277.832,547.852
1612999608.531,970.215,458.008,-719.727,-1000.000
1612999608.535,775.391,834.961,-851.562,-648.438
1612999608.539,-772.461,-729.492,-442.383,915.039
1612999608.543,-1000.000,-1000.000,-253.418,-942.871
1612999608.547,189.941,-102.539,-593.750,-353.027
1612999608.551,-813.477,-859.863,-893.555,-1000.000
1612999608.554,-116.211,-78.613,-503.906,212.891
1612999608.558,-1000.000,-1000.000,-91.309,-760.742
1612999608.562,-228.516,-260.742,-455.078,187.500
1612999608.566,-823.242,-843.262,-858.887,-1000.000
1612999608.570,239.746,248.047,-683.594,-266.602
1612999608.587,-1000.000,-1000.000,-334.473,-795.410
1612999608.591,-368.652,-668.945,-416.504,228.027
1612999608.595,-842.773,980.469,-766.113,-1000.000
1612999608.599,380.859,412.109,-797.363,-267.090
1612999608.603,-1000.000,-1000.000,-383.301,-847.656
1612999608.607,-929.688,-1000.000,-287.109,688.965
1612999608.611,669.922,278.809,-663.086,-943.848
1612999608.614,833.984,828.613,-787.109,-735.840
1612999608.618,-779.785,-762.695,-438.965,854.492
1612999608.622,-1000.000,-1000.000,-258.301,-879.883
1612999608.626,16.602,-180.664,-528.809,-208.984
1612999608.630,-813.965,-854.980,-827.148,-1000.000
1612999608.617,2.441,60.547,-644.043,83.008
1612999608.621,-1000.000,-1000.000,-282.715,-760.742
1612999608.625,-237.305,-285.645,-416.016,197.754
1612999608.629,-821.289,-838.867,-799.805,-1000.000
1612999608.633,242.676,240.723,-760.742,-253.418
1612999608.637,-1000.000,-1000.000,-273.438,-854.980
1612999608.641,-491.699,-799.316,-261.230,245.605
1612999608.644,-897.461,838.867,-741.699,-1000.000
1612999608.648,447.754,524.414,-838.379,-378.418
1612999608.652,-1000.000,-1000.000,-390.137,-891.113
1612999608.656,-974.121,-1000.000,-96.680,773.926
1612999608.660,545.898,189.453,-520.508,-822.754
1612999608.663,962.402,991.699,-900.879,-914.551
1612999608.667,-549.316,-457.520,-538.086,619.629
1612999608.671,-1000.000,-1000.000,-98.145,-817.871
1612999608.675,-87.891,-187.500,-458.496,-96.191
1612999608.679,-870.605,-902.832,-907.715,-1000.000
1612999608.683,30.273,67.871,-636.230,57.129
1612999608.687,-1000.000,-1000.000,-87.891,-777.344
1612999608.690,-248.047,-408.203,-285.645,206.055
1612999608.694,-818.848,-879.395,-853.516,-1000.000
1612999608.698,242.188,251.465,-769.043,-274.414
1612999608.702,-1000.000,-1000.000,-240.234,-806.152
1612999608.706,-561.035,-874.023,-252.930,434.082
1612999608.707,-945.312,721.680,-765.625,-1000.000
1612999608.711,617.188,668.457,-863.770,-474.609
1612999608.715,-926.758,-895.508,-381.836,-970.703
1612999608.719,-1000.000,-1000.000,-122.559,944.336
1612999608.723,278.320,29.297,-624.023,-585.938
1612999608.727,-895.508,-895.508,-852.051,-972.168
1612999608.731,-322.754,-259.766,-476.562,552.734
1612999608.734,-1000.000,-1000.000,-113.770,-795.410
1612999608.738,-216.797,-214.355,-421.387,88.379
1612999608.742,-833.008,-839.355,-883.301,-1000.000
1612999608.746,226.562,221.680,-706.055,-145.020
1612999608.750,-1000.000,-1000.000,-202.637,-773.438
1612999608.810,-345.703,-550.293,-286.621,214.355
1612999608.814,-842.285,-936.523,-800.781,-1000.000
1612999608.818,253.418,313.965,-816.406,-274.414
1612999608.822,-1000.000,-1000.000,-277.832,-816.406
1612999608.826,-671.875,-938.965,-183.105,529.297
1612999608.830,977.539,616.699,-697.754,-1000.000
1612999608.834,651.367,756.348,-857.422,-565.430
1612999608.837,-898.926,-801.758,-426.758,939.453
1612999608.841,-1000.000,-1000.000,-116.699,-897.949
1612999608.845,123.047,-112.793,-517.090,-288.574
1612999608.849,-836.914,-868.164,-898.438,-1000.000
1612999608.853,-176.270,-104.004,-622.070,370.117
1612999608.818,-1000.000,-1000.000,-158.203,-765.137
1612999608.822,-222.656,-242.676,-387.207,181.641
1612999608.826,-830.566,-839.844,-875.977,-1000.000
1612999608.830,243.652,246.582,-731.445,-208.496
1612999608.834,-1000.000,-1000.000,-170.898,-837.891
1612999608.838,-447.266,-652.344,-206.543,214.844
1612999608.842,-875.977,995.117,-749.023,-1000.000
1612999608.845,350.098,401.367,-822.266,-277.344
1612999608.849,-1000.000,-1000.000,-158.203,-857.910
1612999608.853,-909.180,-1000.000,10.742,753.418
1612999608.857,672.363,302.246,-684.570,-882.324
1612999608.861,812.988,904.297,-878.906,-693.359
1612999608.857,-760.742,-637.695,-443.848,885.742
1612999608.861,-1000.000,-1000.000,-168.457,-867.188
1612999608.865,5.371,-175.293,-552.246,-159.668
1612999608.869,-814.453,-854.492,-884.766,-1000.000
1612999608.873,-6.836,32.227,-597.656,179.688
1612999608.877,-1000.000,-1000.000,-171.875,-749.512
1612999608.881,-236.328,-283.203,-385.742,187.500
1612999608.884,-821.289,-841.309,-821.289,-1000.000
1612999608.888,242.188,245.605,-666.016,-276.855
1612999608.892,-1000.000,-1000.000,-303.711,-799.805
1612999608.896,-466.309,-740.723,-354.004,427.734
1612999608.900,-884.277,905.762,-733.887,-1000.000
1612999608.902,442.383,523.438,-780.762,-348.633
1612999608.906,-1000.000,-988.281,-369.141,-903.320
1612999608.910,-975.098,-1000.000,-253.418,884.766
1612999608.914,544.922,187.988,-605.469,-711.426
1612999608.918,967.773,975.098,-810.059,-791.504
1612999608.922,-556.641,-519.043,-451.172,815.430
1612999608.926,-1000.000,-1000.000,-140.137,-833.984
1612999608.929,-57.617,-203.613,-412.109,-48.828
1612999608.933,-805.176,-845.703,-791.992,-1000.000
1612999608.937,112.305,149.902,-651.855,67.383
1612999608.941,-1000.000,-1000.000,-242.188,-750.000
1612999608.945,-249.023,-375.977,-340.820,194.336
1612999608.947,-815.918,-864.258,-777.832,-1000.000
1612999608.951,241.699,252.441,-750.488,-276.855
1612999608.955,-1000.000,-1000.000,-282.715,-808.105
1612999608.959,-548.828,-801.758,-241.211,481.445
1612999608.963,-942.871,818.848,-707.520,-1000.000
1612999608.967,632.812,654.297,-812.988,-444.824
1612999608.971,-952.148,-908.691,-372.070,-970.215
1612999608.974,-1000.000,-1000.000,20.996,995.117
1612999608.978,411.133,100.098,-415.039,-497.559
1612999608.982,-845.215,-874.512,-902.344,-972.168
1612999608.986,-232.910,-242.188,-494.141,562.012
1612999608.990,-1000.000,-1000.000,-129.883,-787.109
1612999608.992,-119.141,-217.285,-448.730,99.609
1612999608.996,-796.875,-834.961,-848.145,-1000.000
1612999609.000,219.727,224.609,-640.625,-53.223
1612999609.004,-1000.000,-1000.000,-225.586,-753.906
1612999609.008,-262.695,-473.145,-310.059,202.148
1612999609.012,-811.035,-893.066,-749.023,-1000.000
1612999609.016,239.258,291.992,-698.730,-276.367
1612999609.019,-1000.000,-1000.000,-164.062,-824.219
1612999609.023,-649.414,-976.074,-190.430,597.168
1612999609.027,999.023,567.871,-673.828,-1000.000
1612999609.031,639.648,746.582,-791.504,-566.406
1612999609.035,-927.734,-827.148,-417.969,951.660
1612999609.036,-1000.000,-1000.000,-250.000,-901.855
1612999609.040,208.984,-77.148,-583.984,-287.598
1612999609.044,-812.988,-856.445,-860.840,-1000.000
1612999609.048,-118.164,-100.586,-593.262,369.629
1612999609.052,-1000.000,-1000.000,-274.414,-761.719
1612999609.056,-228.516,-223.633,-442.383,175.293
1612999609.060,-817.871,-829.102,-787.598,-1000.000
1612999609.063,233.398,245.117,-671.875,-165.527
1612999609.067,-1000.000,-1000.000,-264.648,-768.066
1612999609.071,-268.066,-535.645,-282.715,218.262
1612999609.075,-810.059,-918.945,-696.289,-1000.000
1612999609.079,369.141,393.555,-771.484,-268.066
1612999609.081,-1000.000,-1000.000,-371.582,-854.004
1612999609.085,-793.945,-1000.000,-255.371,726.074
1612999609.089,801.270,404.297,-609.375,-916.504
1612999609.093,896.484,904.785,-849.609,-666.992
1612999609.097,-667.480,-666.504,-469.238,920.410
1612999609.101,-1000.000,-1000.000,-111.328,-929.199
1612999609.105,197.266,-55.664,-434.082,-245.605
1612999609.108,-807.617,-858.398,-858.887,-1000.000
1612999609.112,-7.324,20.020,-599.609,179.199
1612999609.116,-1000.000,-1000.000,-145.996,-751.953
1612999609.120,-238.770,-269.043,-346.680,187.012
1612999609.124,-820.312,-836.914,-835.938,-1000.000
1612999609.142,242.188,246.094,-697.754,-274.902
1612999609.146,-1000.000,-1000.000,-218.750,-796.387
1612999609.150,-466.309,-695.801,-276.367,381.836
1612999609.154,-885.742,953.613,-750.000,-1000.000
1612999609.158,450.195,498.047,-786.133,-317.871
1612999609.162,-1000.000,-1000.000,-289.062,-862.305
1612999609.166,-892.578,-1000.000,-173.340,757.324
1612999609.169,627.441,251.953,-637.695,-841.797
1612999609.173,-963.867,-971.680,-826.660,-827.637
1612999609.177,-440.918,-449.707,-418.945,727.539
1612999609.181,-1000.000,-1000.000,-212.402,-830.566
1612999609.185,-3.418,-196.289,-527.832,-72.266
1612999609.187,-791.504,-843.750,-847.168,-1000.000
1612999609.191,105.957,119.629,-620.605,69.824
1612999609.195,-1000.000,-1000.000,-236.328,-751.465
1612999609.199,-250.000,-341.309,-388.184,194.824
1612999609.203,-812.988,-854.004,-781.738,-1000.000
1612999609.207,240.234,249.512,-692.871,-276.855
1612999609.211,-1000.000,-1000.000,-291.504,-804.688
1612999609.214,-468.262,-776.855,-318.848,466.309
1612999609.218,-894.531,856.445,-679.688,-1000.000
1612999609.222,568.359,610.840,-766.113,-380.371
1612999609.226,-974.121,-938.965,-423.828,-939.453
1612999609.230,-1000.000,-1000.000,-259.766,969.727
1612999609.231,429.688,106.934,-607.422,-526.367
1612999609.235,-909.668,-906.250,-859.863,-942.383
1612999609.239,-343.262,-303.711,-542.969,601.562
1612999609.243,-1000.000,-1000.000,-220.215,-781.738
1612999609.247,-114.746,-176.270,-457.031,27.344
1612999609.251,-920.898,-944.824,-799.805,-1000.000
1612999609.255,-14.160,21.973,-603.516,133.301
1612999609.258,-1000.000,-1000.000,-218.750,-774.414
1612999609.262,-251.465,-472.656,-185.059,201.172
1612999609.266,-820.312,-904.297,-676.270,-1000.000
1612999609.270,241.211,271.973,-790.527,-276.367
1612999609.274,-1000.000,-1000.000,-302.246,-815.918
1612999609.276,-627.441,-944.336,-285.645,522.949
1612999609.280,-991.699,611.328,-720.215,-1000.000
1612999609.284,650.391,734.375,-839.355,-567.871
1612999609.288,-910.645,-842.285,-419.434,978.516
1612999609.292,-1000.000,-1000.000,-254.395,-997.070
1612999609.296,218.750,-17.578,-598.633,-470.215
1612999609.300,-816.406,-856.445,-882.324,-1000.000
1612999609.303,-134.766,-143.555,-482.422,375.977
1612999609.307,-1000.000,-1000.000,-82.031,-769.531
1612999609.311,-227.539,-221.680,-453.613,155.273
1612999609.315,-818.359,-832.031,-856.445,-1000.000
1612999609.319,233.398,245.605,-634.766,-162.109
1612999609.321,-1000.000,-1000.000,-263.672,-769.531
1612999609.325,-266.113,-553.223,-381.348,213.867
1612999609.329,-808.594,-928.711,-752.930,-1000.000
1612999609.333,330.078,347.656,-753.906,-270.508
1612999609.337,-1000.000,-1000.000,-358.887,-842.285
1612999609.341,-795.410,-1000.000,-306.641,675.293
1612999609.345,825.195,376.953,-649.414,-973.633
1612999609.348,798.340,863.770,-782.715,-643.555
1612999609.352,-772.949,-698.730,-461.914,914.062
1612999609.356,-1000.000,-1000.000,-288.086,-890.137
1612999609.360,122.070,-117.188,-562.012,-222.656
1612999609.364,-797.852,-839.355,-829.102,-1000.000
1612999609.368,-8.789,16.602,-591.309,211.914
1612999609.372,-1000.000,-1000.000,-277.344,-755.371
1612999609.376,-238.770,-234.375,-404.297,187.012
1612999609.380,-815.918,-823.730,-766.113,-1000.000
1612999609.384,238.770,242.676,-708.008,-272.949
1612999609.388,-1000.000,-1000.000,-266.602,-792.969
1612999609.392,-369.629,-618.164,-207.520,327.637
1612999609.395,-845.215,-977.051,-625.000,-1000.000
1612999609.399,440.430,472.656,-801.270,-276.367
1612999609.403,-1000.000,-1000.000,-369.141,-860.840
1612999609.407,-823.730,-1000.000,-227.051,778.809
1612999609.411,759.766,288.574,-617.188,-851.074
1612999609.412,935.547,991.699,-866.699,-691.406
1612999609.416,-567.871,-507.812,-479.980,874.512
1612999609.420,-1000.000,-1000.000,-131.836,-851.074
1612999609.424,5.371,-186.035,-469.238,-49.805
1612999609.428,-806.641,-844.238,-854.980,-1000.000
1612999609.432,20.020,91.309,-632.324,116.211
1612999609.436,-1000.000,-1000.000,-37.109,-746.582
1612999609.439,-239.258,-310.059,-159.180,190.430
1612999609.443,-819.336,-845.215,-844.238,-1000.000
1612999609.447,242.188,249.023,-724.121,-277.344
1612999609.451,-1000.000,-1000.000,-303.711,-805.176
1612999609.455,-468.262,-723.145,-364.258,470.703
1612999609.457,-892.578,916.992,-742.188,-1000.000
1612999609.461,541.992,589.355,-809.082,-387.207
1612999609.465,-1000.000,-957.520,-419.434,-924.316
1612999609.469,-923.828,-1000.000,-314.941,926.758
1612999609.473,604.980,190.430,-631.348,-628.418
1612999609.477,-940.918,-906.250,-826.172,-847.656
1612999609.481,-379.883,-326.172,-518.555,716.797
1612999609.484,-1000.000,-1000.000,-180.664,-810.059
1612999609.488,-104.004,-212.402,-450.684,57.617
1612999609.492,-808.105,-839.355,-800.781,-1000.000
1612999609.496,125.977,188.965,-569.336,23.926
1612999609.500,-1000.000,-1000.000,-306.152,-746.582
1612999609.516,-249.023,-430.176,-414.062,195.801
1612999609.520,-816.406,-881.348,-765.625,-1000.000
1612999609.524,242.188,255.371,-748.047,-277.344
1612999609.528,-1000.000,-1000.000,-337.891,-812.988
1612999609.532,-584.473,-918.457,-290.039,527.344
1612999609.536,-960.938,664.551,-674.316,-1000.000
1612999609.540,627.930,671.875,-811.035,-482.910
1612999609.543,-925.293,-899.414,-452.148,-988.281
1612999609.547,-1000.000,-1000.000,-239.258,-979.492
1612999609.551,252.441,0.488,-517.090,-442.871
1612999609.555,-839.355,-874.512,-861.328,-1000.000
1612999609.559,-222.656,-198.242,-590.332,506.836
1612999609.562,-1000.000,-1000.000,-229.980,-784.668
1612999609.566,-199.219,-220.215,-439.453,98.633
1612999609.570,-810.547,-826.172,-857.910,-1000.000
1612999609.574,212.402,219.238,-693.848,-116.699
1612999609.578,-1000.000,-1000.000,-241.211,-826.660
1612999609.582,-176.758,-403.809,-303.223,124.512
1612999609.586,-820.312,-910.156,-738.281,-1000.000
1612999609.589,310.547,313.477,-780.762,-274.902
1612999609.593,-1000.000,-1000.000,-213.379,-828.613
1612999609.597,-651.855,-1000.000,-97.656,609.375
1612999609.601,971.680,510.742,-692.871,-1000.000
1612999609.605,776.855,807.617,-843.750,-582.031
1612999609.607,-776.855,-762.695,-384.277,947.266
1612999609.611,-1000.000,-1000.000,-221.680,-905.762
1612999609.615,220.703,-77.637,-605.469,-273.438
1612999609.619,-811.035,-849.609,-865.723,-1000.000
1612999609.623,-118.652,-71.289,-572.754,289.551
1612999609.627,-1000.000,-1000.000,-208.984,-762.207
1612999609.631,-228.516,-226.562,-433.105,185.059
1612999609.634,-822.754,-829.590,-827.637,-1000.000
1612999609.638,239.746,243.652,-645.020,-266.602
1612999609.642,-1000.000,-1000.000,-324.219,-791.504
1612999609.646,-365.723,-627.930,-401.367,326.660
1612999609.650,-842.773,-983.887,-745.117,-1000.000
1612999609.652,346.191,407.715,-774.902,-278.809
1612999609.656,-1000.000,-1000.000,-383.789,-854.004
1612999609.660,-790.039,-1000.000,-295.410,753.418
1612999609.664,814.941,365.723,-631.348,-881.836
1612999609.668,846.680,859.375,-808.594,-694.336
1612999609.672,-720.703,-711.914,-450.684,886.230
1612999609.676,-1000.000,-1000.000,-184.082,-870.605
1612999609.679,109.375,-156.250,-451.172,-153.320
1612999609.683,-798.340,-851.074,-807.129,-1000.000
1612999609.687,-7.324,32.227,-628.906,134.277
1612999609.691,-1000.000,-1000.000,-279.785,-752.930
1612999609.695,-238.770,-279.785,-417.480,190.918
1612999609.697,-820.312,-839.355,-806.641,-1000.000
1612999609.701,242.676,246.094,-734.375,-275.391
1612999609.705,-1000.000,-1000.000,-330.078,-800.781
1612999609.709,-467.285,-720.215,-335.449,404.297
1612999609.713,-889.648,925.781,-709.961,-1000.000
1612999609.717,503.418,522.949,-781.250,-380.371
1612999609.721,-1000.000,-999.512,-384.277,-913.574
1612999609.724,-919.434,-1000.000,-70.801,875.977
1612999609.728,607.910,237.305,-473.145,-707.031
1612999609.732,-957.031,-968.750,-894.531,-839.844
1612999609.736,-421.387,-441.406,-500.000,718.262
1612999609.740,-1000.000,-1000.000,-256.836,-812.988
1612999609.742,-59.082,-207.520,-561.035,32.715
1612999609.746,-801.758,-842.285,-859.863,-1000.000
1612999609.750,112.793,150.391,-637.695,56.152
1612999609.754,-1000.000,-1000.000,-307.617,-744.141
1612999609.758,-249.023,-332.520,-433.105,194.824
1612999609.762,-814.941,-846.680,-793.945,-1000.000
1612999609.766,241.699,245.117,-684.570,-258.789
1612999609.769,-1000.000,-1000.000,-177.246,-867.676
1612999609.773,-526.855,-801.758,-264.160,411.621
1612999609.777,-924.316,828.613,-719.727,-1000.000
1612999609.781,572.754,618.652,-777.832,-481.445
1612999609.785,-984.863,-934.082,-404.785,-985.352
1612999609.787,-1000.000,-1000.000,-299.805,999.512
1612999609.791,417.480,70.801,-629.883,-498.535
1612999609.795,-876.465,-891.113,-853.516,-981.934
1612999609.799,-290.039,-268.066,-569.336,555.176
1612999609.803,-1000.000,-1000.000,-286.133,-790.039
1612999609.807,-135.254,-214.844,-460.449,66.406
1612999609.811,-803.711,-835.938,-811.035,-1000.000
1612999609.814,222.168,220.703,-678.223,-81.055
1612999609.818,-1000.000,-1000.000,-327.637,-762.695
1612999609.822,-262.207,-460.449,-364.258,207.031
1612999609.826,-811.035,-887.207,-711.426,-1000.000
1612999609.830,239.258,278.320,-745.605,-275.879
1612999609.833,-1000.000,-1000.000,-362.793,-827.637
1612999609.837,-649.414,-991.211,-281.738,617.188
1612999609.841,998.535,541.016,-625.000,-1000.000
1612999609.845,639.648,749.023,-831.543,-586.426
1612999609.849,-927.734,-833.008,-460.938,953.613
1612999609.853,-1000.000,-1000.000,-176.758,-919.434
1612999609.857,219.238,-30.273,-490.723,-326.172
1612999609.860,-820.801,-851.562,-876.953,-1000.000
1612999609.864,-149.902,-125.000,-595.703,371.094
1612999609.868,-1000.000,-1000.000,-202.637,-765.137
1612999609.872,-228.027,-224.609,-406.738,179.688
1612999609.876,-813.477,-824.219,-854.004,-1000.000
1612999609.892,216.309,227.051,-687.988,-179.199
1612999609.896,-1000.000,-1000.000,-280.273,-833.496
1612999609.900,-200.195,-468.750,-359.863,129.395
1612999609.904,-827.148,-941.406,-752.441,-1000.000
1612999609.908,337.402,391.113,-792.969,-267.578
1612999609.912,-1000.000,-1000.000,-229.980,-853.516
1612999609.916,-790.039,-1000.000,-163.086,708.496
1612999609.919,816.406,405.273,-703.613,-934.082
1612999609.923,837.891,884.277,-824.219,-683.105
1612999609.927,-716.797,-664.062,-424.805,883.789
1612999609.931,-1000.000,-1000.000,-249.512,-867.676
1612999609.935,111.816,-151.855,-570.801,-159.668
1612999609.937,-804.688,-853.027,-859.375,-1000.000
1612999609.941,-35.645,5.371,-597.168,172.852
1612999609.945,-1000.000,-1000.000,-251.953,-727.051
1612999609.949,-180.664,-203.613,-435.059,133.301
1612999609.953,-966.309,-981.934,-771.973,-1000.000
1612999609.957,-37.598,-31.738,-616.211,5.371
1612999609.961,-1000.000,-1000.000,-227.539,-818.359
1612999609.964,-396.484,-660.645,-295.898,326.660
1612999609.968,-868.164,971.191,-681.152,-1000.000
1612999609.972,437.012,487.793,-726.562,-354.492
1612999609.976,-1000.000,-1000.000,-406.250,-885.742
1612999609.980,-923.340,-1000.000,-293.945,777.832
1612999609.981,637.207,243.164,-635.254,-831.055
1612999609.985,936.523,985.840,-846.191,-827.148
1612999609.989,-597.656,-510.254,-525.391,724.121
1612999609.993,-1000.000,-1000.000,-261.230,-825.684
1612999609.997,-0.977,-202.637,-506.836,-48.828
1612999610.001,-803.223,-849.609,-839.844,-1000.000
1612999610.005,54.199,99.609,-635.742,67.383
1612999610.008,-1000.000,-1000.000,-251.953,-750.488
1612999610.012,-243.652,-335.449,-309.570,194.336
1612999610.016,-819.824,-854.004,-775.391,-1000.000
1612999610.020,243.164,245.117,-780.762,-276.367
1612999610.024,-1000.000,-1000.000,-300.781,-806.641
1612999610.026,-548.828,-831.055,-277.344,463.379
1612999610.030,-931.641,795.410,-725.098,-1000.000
1612999610.034,544.434,585.938,-829.102,-439.941
1612999610.038,-1000.000,-952.637,-380.859,-971.191
1612999610.042,-1000.000,-1000.000,-228.027,994.629
1612999610.046,437.988,53.711,-604.492,-494.629
1612999610.050,-940.430,-926.758,-875.488,-984.375
1612999610.053,-415.039,-326.172,-435.059,557.129
1612999610.057,-1000.000,-1000.000,-70.312,-791.504
1612999610.061,-111.328,-211.914,-500.977,39.062
1612999610.065,-806.641,-838.867,-861.328,-1000.000
1612999610.069,178.711,203.613,-620.117,-44.922
1612999610.072,-1000.000,-1000.000,-282.715,-758.301
1612999610.076,-256.836,-440.918,-406.250,203.613
1612999610.080,-812.988,-883.301,-769.531,-1000.000
1612999610.084,240.723,266.113,-753.418,-276.367
1612999610.088,-1000.000,-1000.000,-348.145,-814.941
1612999610.092,-609.863,-929.199,-305.664,528.320
1612999610.096,-976.562,645.020,-684.570,-1000.000
1612999610.099,631.348,699.219,-789.062,-517.578
1612999610.103,-922.852,-870.117,-449.219,973.633
1612999610.107,-1000.000,-1000.000,-322.266,-929.199
1612999610.111,229.004,-34.668,-607.422,-324.219
1612999610.115,-839.355,-872.559,-843.262,-1000.000
1612999610.116,-220.215,-172.852,-580.078,374.023
1612999610.120,-1000.000,-1000.000,-270.996,-765.625
1612999610.124,-220.215,-219.238,-449.707,135.254
1612999610.128,-825.684,-834.473,-813.477,-1000.000
1612999610.132,236.328,239.746,-670.410,-159.668
1612999610.136,-1000.000,-1000.000,-261.230,-771.484
1612999610.140,-300.781,-561.035,-274.902,214.355
1612999610.143,-821.777,-935.547,-679.688,-1000.000
1612999610.147,307.129,323.730,-787.598,-274.414
1612999610.151,-1000.000,-1000.000,-378.418,-829.590
1612999610.155,-751.953,-1000.000,-308.105,617.188
1612999610.159,863.281,429.199,-684.570,-1000.000
1612999610.162,791.992,823.730,-851.562,-671.875
1612999610.166,-770.020,-744.141,-466.309,894.043
1612999610.170,-1000.000,-1000.000,-246.582,-895.508
1612999610.174,139.160,-116.211,-586.426,-261.230
1612999610.178,-816.895,-855.469,-882.324,-1000.000
1612999610.182,-111.816,-53.223,-601.074,187.988
1612999610.186,-1000.000,-1000.000,-130.859,-755.859
1612999610.189,-228.027,-237.793,-344.727,187.988
1612999610.193,-822.754,-833.008,-858.398,-1000.000
1612999610.197,239.746,244.629,-687.012,-272.949
1612999610.201,-1000.000,-1000.000,-148.438,-793.457
1612999610.205,-369.629,-654.785,-269.043,327.637
1612999610.206,-845.215,992.676,-774.414,-1000.000
1612999610.210,438.477,443.848,-776.367,-278.809
1612999610.214,-1000.000,-1000.000,-368.164,-854.004
1612999610.218,-845.703,-1000.000,-330.566,751.465
1612999610.222,739.746,282.715,-690.918,-876.465
1612999610.226,921.387,944.336,-809.082,-719.238
1612999610.230,-595.703,-576.172,-441.406,842.773
1612999610.233,-1000.000,-1000.000,-224.609,-852.051
1612999610.237,7.324,-191.406,-533.691,-60.059
1612999610.241,-809.082,-853.516,-825.684,-1000.000
1612999610.245,3.418,65.430,-581.055,68.848
1612999610.249,-1000.000,-1000.000,-304.199,-750.977
1612999610.266,-237.305,-319.336,-428.223,194.336
1612999610.270,-820.312,-852.051,-791.992,-1000.000
1612999610.274,242.676,249.512,-726.562,-274.902
1612999610.278,-1000.000,-1000.000,-335.938,-801.270
1612999610.282,-467.773,-756.348,-335.938,407.227
1612999610.286,-890.625,885.254,-694.336,-1000.000
1612999610.290,525.391,548.340,-790.039,-390.137
1612999610.293,-1000.000,-974.609,-426.758,-918.457
1612999610.297,-976.562,-1000.000,-288.086,877.930
1612999610.301,529.785,139.648,-587.891,-673.340
1612999610.305,-948.242,-952.637,-857.422,-931.641
1612999610.309,-418.457,-396.484,-544.434,611.328
1612999610.312,-1000.000,-1000.000,-174.316,-808.594
1612999610.316,-73.242,-211.914,-420.898,-4.395
1612999610.320,-796.875,-834.961,-870.117,-1000.000
1612999610.324,95.703,160.156,-662.598,-11.230
1612999610.328,-1000.000,-1000.000,-245.117,-816.406
1612999610.332,-160.645,-311.523,-347.656,115.234
1612999610.336,-827.148,-880.371,-757.812,-1000.000
1612999610.339,242.676,248.047,-770.508,-276.855
1612999610.343,-1000.000,-1000.000,-205.078,-815.430
1612999610.347,-561.035,-886.719,-118.164,527.344
1612999610.351,-949.219,706.055,-727.539,-1000.000
1612999610.355,635.254,669.922,-828.613,-486.328
1612999610.356,-953.125,-904.785,-389.160,-980.957
1612999610.360,-1000.000,-1000.000,-256.348,999.512
1612999610.364,411.621,51.270,-615.234,-498.047
1612999610.368,-849.121,-866.699,-871.094,-977.539
1612999610.372,-227.051,-203.613,-541.992,549.316
1612999610.376,-1000.000,-1000.000,-189.941,-786.133
1612999610.380,-188.477,-218.750,-449.707,140.137
1612999610.383,-814.941,-834.961,-839.355,-1000.000
1612999610.387,229.492,230.957,-589.355,-113.770
1612999610.391,-1000.000,-1000.000,-231.445,-761.230
1612999610.395,-260.742,-520.508,-386.719,208.496
1612999610.399,-811.035,-916.504,-759.766,-1000.000
1612999610.402,239.258,306.152,-749.512,-275.391
1612999610.406,-1000.000,-1000.000,-362.305,-824.707
1612999610.410,-641.602,-990.723,-324.219,596.680
1612999610.414,972.656,534.180,-690.918,-1000.000
1612999610.418,751.953,782.227,-830.566,-579.590
1612999610.422,-799.805,-788.086,-429.199,945.801
1612999610.426,-1000.000,-1000.000,-206.055,-903.320
1612999610.429,192.383,-93.262,-500.977,-279.297
1612999610.433,-813.477,-859.863,-791.016,-1000.000
1612999610.437,-116.211,-96.191,-589.844,319.336
1612999610.441,-1000.000,-1000.000,-286.621,-762.695
1612999610.445,-228.516,-235.352,-475.098,182.617
1612999610.447,-820.801,-834.473,-842.773,-1000.000
1612999610.451,236.816,247.070,-706.055,-243.652
1612999610.455,-1000.000,-1000.000,-325.195,-787.109
1612999610.459,-328.125,-566.895,-367.676,277.832
1612999610.463,-832.031,-938.965,-743.164,-1000.000
1612999610.467,444.336,449.707,-774.902,-281.250
1612999610.471,-1000.000,-1000.000,-342.285,-825.195
1612999610.474,-669.922,-1000.000,-147.461,615.723
1612999610.478,950.684,462.402,-573.730,-1000.000
1612999610.482,863.770,900.879,-872.559,-664.062
1612999610.486,-625.977,-633.789,-434.082,880.371
1612999610.490,-1000.000,-1000.000,-152.832,-871.582
1612999610.492,58.594,-171.875,-546.387,-154.297
1612999610.496,-807.129,-858.398,-876.465,-1000.000
1612999610.500,-22.461,10.254,-589.355,141.113
1612999610.504,-1000.000,-1000.000,-260.254,-752.441
1612999610.508,-235.840,-301.270,-426.270,190.430
1612999610.512,-821.777,-851.074,-802.246,-1000.000
1612999610.516,242.676,247.559,-649.902,-275.879
1612999610.519,-1000.000,-1000.000,-194.336,-801.270
1612999610.523,-466.309,-759.277,-341.797,418.457
1612999610.527,-885.742,884.277,-749.023,-1000.000
1612999610.531,448.730,510.742,-774.414,-382.324
1612999610.535,-1000.000,-997.559,-395.508,-915.039
1612999610.538,-912.598,-1000.000,-322.754,883.789
1612999610.542,614.258,168.945,-658.691,-695.801
1612999610.546,-988.281,-984.863,-839.844,-846.680
1612999610.550,-483.398,-460.938,-519.043,727.539
1612999610.554,-1000.000,-1000.000,-268.555,-825.195
1612999610.558,-3.906,-201.660,-514.648,-45.410
1612999610.562,-792.480,-844.238,-820.801,-1000.000
1612999610.565,105.957,144.043,-642.578,38.086
1612999610.569,-1000.000,-1000.000,-299.316,-753.906
1612999610.573,-250.000,-366.699,-394.531,197.266
1612999610.577,-816.406,-860.352,-767.578,-1000.000
1612999610.581,242.188,245.117,-749.023,-276.855
1612999610.581,-1000.000,-1000.000,-334.473,-811.523
1612999610.585,-561.035,-870.117,-297.852,504.395
1612999610.589,-938.477,738.770,-684.082,-1000.000
1612999610.593,546.875,621.094,-805.664,-483.398
1612999610.597,-1000.000,-943.848,-447.754,-978.027
1612999610.601,-1000.000,-1000.000,-176.758,984.863
1612999610.605,413.086,82.031,-464.355,-520.996
1612999610.608,-871.094,-892.090,-870.117,-979.004
1612999610.612,-278.809,-275.879,-555.664,554.199
1612999610.616,-1000.000,-1000.000,-241.211,-787.598
1612999610.620,-148.438,-214.355,-476.074,71.289
1612999610.624,-806.641,-838.379,-838.867,-1000.000
1612999610.642,224.121,215.332,-668.457,-49.316
1612999610.646,-1000.000,-1000.000,-249.512,-755.371
1612999610.650,-261.719,-486.328,-348.145,203.125
1612999610.654,-809.082,-903.320,-787.598,-1000.000
1612999610.658,239.746,293.945,-745.117,-276.367
1612999610.662,-1000.000,-1000.000,-260.254,-816.406
1612999610.666,-571.289,-912.109,-264.648,528.809
1612999610.669,-966.797,661.621,-712.891,-1000.000
1612999610.673,679.199,741.211,-828.125,-565.918
1612999610.677,-860.352,-823.730,-299.316,941.406
1612999610.681,-1000.000,-1000.000,-158.691,-903.809
1612999610.685,227.051,-51.758,-640.137,-299.805
1612999610.687,-829.590,-865.723,-861.328,-1000.000
1612999610.691,-186.523,-144.531,-568.848,370.117
1612999610.695,-1000.000,-1000.000,-313.965,-761.719
1612999610.699,-223.145,-220.703,-500.488,175.293
1612999610.703,-821.777,-832.520,-822.266,-1000.000
1612999610.707,233.887,245.605,-672.363,-165.039
1612999610.711,-1000.000,-1000.000,-241.699,-768.555
1612999610.714,-269.043,-555.176,-328.125,213.379
1612999610.718,-809.082,-928.711,-713.379,-1000.000
1612999610.722,330.566,362.793,-701.172,-267.578
1612999610.726,-1000.000,-1000.000,-396.973,-854.492
1612999610.730,-795.410,-1000.000,-342.285,724.609
1612999610.731,825.195,357.910,-661.621,-916.504
1612999610.735,797.363,853.027,-845.703,-686.523
1612999610.739,-769.531,-703.613,-490.234,884.277
1612999610.743,-1000.000,-1000.000,-231.445,-867.676
1612999610.747,113.281,-153.320,-525.879,-159.668
1612999610.751,-808.594,-855.469,-857.422,-1000.000
1612999610.755,-60.059,-15.137,-616.211,179.199
1612999610.758,-1000.000,-1000.000,-283.203,-749.512
1612999610.762,-232.910,-240.723,-412.109,187.500
1612999610.766,-819.824,-830.566,-808.594,-1000.000
1612999610.770,239.258,244.141,-747.070,-272.461
1612999610.774,-1000.000,-1000.000,-261.719,-795.410
1612999610.777,-375.000,-665.039,-254.883,330.078
1612999610.781,-846.191,983.398,-754.883,-1000.000
1612999610.785,434.082,469.238,-808.594,-317.383
1612999610.789,-1000.000,-1000.000,-338.379,-891.113
1612999610.793,-905.273,-1000.000,-248.047,832.520
1612999610.797,658.203,249.023,-640.625,-749.512
1612999610.801,940.918,990.723,-862.793,-843.262
1612999610.804,-589.844,-507.812,-391.602,732.422
1612999610.808,-1000.000,-1000.000,-19.043,-833.984
1612999610.812,14.160,-184.082,-505.371,-99.609
1612999610.816,-797.852,-845.215,-871.582,-1000.000
1612999610.820,72.754,96.680,-598.145,72.266
1612999610.823,-1000.000,-1000.000,-280.762,-753.418
1612999610.827,-246.582,-337.891,-420.410,195.312
1612999610.831,-818.848,-854.492,-782.715,-1000.000
1612999610.835,242.676,243.652,-717.285,-276.855
1612999610.839,-1000.000,-1000.000,-302.734,-808.105
1612999610.843,-561.035,-855.469,-309.570,473.145
1612999610.847,-939.453,763.184,-700.684,-1000.000
1612999610.850,552.734,580.566,-766.113,-466.797
1612999610.854,-1000.000,-971.191,-424.316,-942.871
1612999610.858,-977.051,-1000.000,-347.656,889.160
1612999610.862,495.117,119.141,-635.742,-661.133
1612999610.866,-885.742,-902.832,-836.914,-966.797
1612999610.867,-313.477,-308.594,-574.707,559.082
1612999610.871,-1000.000,-1000.000,-312.988,-797.852
1612999610.875,-38.574,-213.379,-524.414,22.461
1612999610.879,-785.645,-836.914,-858.887,-1000.000
1612999610.883,194.336,204.102,-654.785,-42.969
1612999610.887,-1000.000,-1000.000,-240.234,-759.277
1612999610.891,-261.719,-416.016,-305.664,204.102
1612999610.894,-810.547,-872.070,-693.848,-1000.000
1612999610.898,240.234,257.812,-748.047,-276.367
1612999610.902,-1000.000,-1000.000,-363.281,-815.918
1612999610.906,-590.332,-926.270,-310.059,536.133
1612999610.910,-963.867,651.855,-694.824,-1000.000
1612999610.911,626.953,688.965,-838.867,-534.668
1612999610.915,-921.387,-881.348,-424.316,982.910
1612999610.919,-1000.000,-1000.000,-202.148,-967.285
1612999610.923,229.004,-14.648,-586.914,-399.902
1612999610.927,-839.355,-877.930,-869.141,-1000.000
1612999610.931,-220.215,-198.242,-550.293,372.559
1612999610.935,-1000.000,-1000.000,-80.566,-765.625
1612999610.938,-220.215,-217.773,-332.031,175.781
1612999610.942,-823.730,-833.984,-869.629,-1000.000
1612999610.946,233.887,237.305,-655.273,-165.527
1612999610.950,-1000.000,-1000.000,-198.730,-768.066
1612999610.954,-266.113,-512.695,-356.934,213.379
1612999610.957,-809.082,-910.645,-792.480,-1000.000
1612999610.961,338.867,346.191,-764.648,-274.414
1612999610.965,-1000.000,-1000.000,-363.281,-827.637
1612999610.969,-656.250,-1000.000,-342.285,617.676
1612999610.973,976.562,520.020,-698.730,-1000.000
1612999610.977,769.043,817.871,-785.156,-585.938
1612999610.981,-763.672,-741.699,-392.090,934.082
1612999610.984,-1000.000,-1000.000,-179.688,-892.090
1612999610.988,130.371,-118.164,-522.949,-180.664
1612999610.992,-817.871,-857.422,-856.445,-1000.000
1612999610.996,-110.840,-59.570,-583.008,185.059
1612999611.000,-1000.000,-1000.000,-218.750,-751.465
1612999611.017,-228.027,-240.723,-408.203,187.500
1612999611.021,-822.754,-834.473,-799.805,-1000.000
1612999611.025,239.746,245.117,-702.148,-272.949
1612999611.029,-1000.000,-1000.000,-350.586,-793.457
1612999611.033,-367.676,-652.832,-375.000,327.637
1612999611.037,-842.285,995.117,-724.609,-1000.000
1612999611.041,375.977,420.898,-779.297,-274.414
1612999611.044,-1000.000,-1000.000,-396.484,-867.188
1612999611.048,-889.160,-1000.000,-288.086,798.828
1612999611.052,658.691,257.812,-617.676,-800.781
1612999611.056,955.566,961.426,-850.098,-774.414
1612999611.060,-646.484,-614.746,-509.766,854.492
1612999611.063,-1000.000,-1000.000,-297.852,-955.078
1612999611.067,287.598,17.090,-561.035,-287.109
1612999611.071,-804.688,-853.516,-846.680,-1000.000
1612999611.075,-13.672,49.805,-653.320,125.488
1612999611.079,-1000.000,-1000.000,-204.102,-813.477
1612999611.083,-152.344,-195.312,-304.688,104.492
1612999611.087,-830.078,-847.656,-780.273,-1000.000
1612999611.090,242.188,243.652,-750.000,-276.367
1612999611.094,-1000.000,-1000.000,-176.758,-803.711
1612999611.098,-467.773,-744.141,-128.906,430.664
1612999611.102,-890.137,900.879,-742.676,-1000.000
1612999611.106,509.277,536.133,-796.387,-384.277
1612999611.106,-1000.000,-978.516,-336.914,-914.551
1612999611.110,-944.336,-1000.000,-243.652,884.277
1612999611.114,602.051,167.969,-647.461,-697.266
1612999611.118,987.793,979.492,-835.449,-852.051
1612999611.122,-502.930,-507.324,-478.027,725.586
1612999611.126,-1000.000,-1000.000,-214.844,-819.824
1612999611.130,-106.445,-207.520,-493.652,19.531
1612999611.133,-812.988,-847.168,-875.977,-1000.000
1612999611.137,118.652,152.344,-522.949,-30.762
1612999611.141,-1000.000,-1000.000,-129.883,-757.812
1612999611.145,-248.047,-401.855,-430.664,202.637
1612999611.149,-815.430,-875.488,-799.316,-1000.000
1612999611.152,241.699,256.348,-732.422,-276.855
1612999611.156,-1000.000,-1000.000,-379.395,-812.988
1612999611.160,-533.691,-808.105,-375.977,524.414
1612999611.164,-938.965,800.293,-720.703,-1000.000
1612999611.168,644.531,693.359,-820.801,-500.488
1612999611.172,-987.793,-920.410,-401.855,-944.336
1612999611.176,-937.012,-1000.000,-249.512,894.531
1612999611.179,592.285,260.254,-563.965,-679.199
1612999611.183,-864.746,-888.672,-794.434,-960.938
1612999611.187,-231.934,-226.074,-576.660,553.223
1612999611.191,-1000.000,-1000.000,-282.715,-795.898
1612999611.195,-150.391,-217.773,-472.168,119.629
1612999611.197,-805.176,-834.961,-826.660,-1000.000
1612999611.201,224.121,226.074,-669.922,-143.066
1612999611.205,-1000.000,-1000.000,-254.883,-769.531
1612999611.209,-261.719,-497.559,-324.219,212.891
1612999611.213,-810.547,-905.273,-750.977,-1000.000
1612999611.217,239.258,298.340,-742.676,-274.902
1612999611.221,-1000.000,-1000.000,-312.500,-825.684
1612999611.224,-647.461,-983.398,-153.320,602.051
1612999611.228,994.141,554.688,-597.168,-1000.000
1612999611.232,662.109,750.000,-874.023,-577.637
1612999611.236,-884.766,-817.383,-409.668,941.406
1612999611.240,-1000.000,-1000.000,-171.387,-895.020
1612999611.257,131.836,-116.211,-588.379,-240.234
1612999611.261,-820.312,-867.188,-893.066,-1000.000
1612999611.265,-119.141,-103.027,-544.434,301.758
1612999611.269,-1000.000,-1000.000,-216.797,-760.254
1612999611.273,-227.539,-222.168,-461.914,183.594
1612999611.277,-822.266,-831.055,-823.730,-1000.000
1612999611.281,238.281,245.605,-633.301,-256.836
1612999611.284,-1000.000,-1000.000,-166.504,-790.039
1612999611.288,-342.773,-576.660,-345.703,295.898
1612999611.292,-836.426,-944.336,-773.438,-1000.000
1612999611.296,365.723,404.785,-769.043,-281.738
1612999611.300,-1000.000,-1000.000,-405.273,-835.938
1612999611.288,-720.215,-1000.000,-345.703,688.477
1612999611.292,890.625,488.770,-676.270,-977.539
1612999611.296,899.414,900.879,-832.520,-680.176
1612999611.300,-619.141,-628.906,-484.375,885.254
1612999611.304,-1000.000,-1000.000,-261.719,-869.629
1612999611.308,109.375,-149.902,-535.156,-159.180
1612999611.312,-795.898,-851.074,-832.031,-1000.000
1612999611.315,-7.812,10.254,-600.586,176.270
1612999611.319,-1000.000,-1000.000,-273.926,-750.000
1612999611.323,-238.770,-277.344,-410.156,187.500
1612999611.327,-820.312,-840.820,-763.184,-1000.000
1612999611.331,242.676,245.117,-725.098,-275.879
1612999611.332,-1000.000,-1000.000,-322.754,-801.270
1612999611.336,-466.309,-735.840,-317.383,417.969
1612999611.340,-885.742,910.645,-728.027,-1000.000
1612999611.344,448.730,503.906,-791.504,-382.324
1612999611.348,-1000.000,-1000.000,-380.371,-915.039
1612999611.352,-910.156,-1000.000,-190.918,883.789
1612999611.356,605.957,213.379,-530.273,-695.801
1612999611.359,-962.402,-976.562,-858.398,-846.680
1612999611.363,-443.848,-455.078,-517.578,727.051
1612999611.367,-1000.000,-1000.000,-111.816,-823.242
1612999611.371,-3.906,-189.453,-401.855,-48.828
1612999611.375,-791.504,-839.844,-883.789,-1000.000
1612999611.392,105.957,142.090,-634.277,67.383
1612999611.396,-1000.000,-1000.000,-238.281,-750.000
1612999611.400,-250.000,-354.004,-395.508,194.336
1612999611.404,-814.941,-855.957,-808.594,-1000.000
1612999611.408,241.699,248.047,-741.211,-276.855
